t,v(t)
0,0
0.02,-0.1934
0.04,-0.3868
0.06,-0.5802
0.08,-0.7736
0.1,-0.966999
0.12,-1.1604
0.14,-1.3538
0.16,-1.5472
0.18,-1.7406
0.2,-1.93399
0.22,-2.12739
0.24,-2.32079
0.26,-2.51419
0.28,-2.70758
0.3,-2.90098
0.32,-3.09437
0.34,-3.28777
0.36,-3.48116
0.38,-3.67456
0.4,-3.86795
0.42,-4.06134
0.44,-4.25473
0.46,-4.44812
0.48,-4.64151
0.5,-4.8349
0.52,-5.02829
0.54,-5.22167
0.56,-5.41506
0.58,-5.60844
0.6,-5.80182
0.62,-5.99521
0.64,-6.18859
0.66,-6.38196
0.68,-6.57534
0.7,-6.76872
0.72,-6.96209
0.74,-7.15547
0.76,-7.34884
0.78,-7.54221
0.8,-7.73558
0.82,-7.92894
0.84,-8.12231
0.86,-8.31567
0.88,-8.50904
0.9,-8.7024
0.92,-8.89575
0.94,-9.08911
0.96,-9.28247
0.98,-9.47582
1,-9.66917
1.02,-9.86252
1.04,-10.0559
1.06,-10.2492
1.08,-10.4426
1.1,-10.6359
1.12,-10.8292
1.14,-11.0226
1.16,-11.2159
1.18,-11.4092
1.2,-11.6026
1.22,-11.7959
1.24,-11.9892
1.26,-12.1825
1.28,-12.3758
1.3,-12.5692
1.32,-12.7625
1.34,-12.9558
1.36,-13.1491
1.38,-13.3424
1.4,-13.5357
1.42,-13.729
1.44,-13.9223
1.46,-14.1156
1.48,-14.3089
1.5,-14.5022
1.52,-14.6955
1.54,-14.8887
1.56,-15.082
1.58,-15.2753
1.6,-15.4686
1.62,-15.6618
1.64,-15.8551
1.66,-16.0484
1.68,-16.2416
1.7,-16.4349
1.72,-16.6281
1.74,-16.8214
1.76,-17.0146
1.78,-17.2078
1.8,-17.4011
1.82,-17.5943
1.84,-17.7875
1.86,-17.9808
1.88,-18.174
1.9,-18.3672
1.92,-18.5604
1.94,-18.7536
1.96,-18.9468
1.98,-19.14
2,-19.3332
2.02,-19.5264
2.04,-19.7196
2.06,-19.9128
2.08,-20.106
2.1,-20.2992
2.12,-20.4923
2.14,-20.6855
2.16,-20.8787
2.18,-21.0718
2.2,-21.265
2.22,-21.4581
2.24,-21.6513
2.26,-21.8444
2.28,-22.0376
2.3,-22.2307
2.32,-22.4238
2.34,-22.617
2.36,-22.8101
2.38,-23.0032
2.4,-23.1963
2.42,-23.3894
2.44,-23.5825
2.46,-23.7756
2.48,-23.9687
2.5,-24.1618
2.52,-24.3548
2.54,-24.5479
2.56,-24.741
2.58,-24.934
2.6,-25.1271
2.62,-25.3202
2.64,-25.5132
2.66,-25.7062
2.68,-25.8993
2.7,-26.0923
2.72,-26.2853
2.74,-26.4784
2.76,-26.6714
2.78,-26.8644
2.8,-27.0574
2.82,-27.2504
2.84,-27.4434
2.86,-27.6363
2.88,-27.8293
2.9,-28.0223
2.92,-28.2153
2.94,-28.4082
2.96,-28.6012
2.98,-28.7941
3,-28.9871
3.02,-29.18
3.04,-29.3729
3.06,-29.5659
3.08,-29.7588
3.1,-29.9517
3.12,-30.1446
3.14,-30.3375
3.16,-30.5304
3.18,-30.7233
3.2,-30.9161
3.22,-31.109
3.24,-31.3019
3.26,-31.4947
3.28,-31.6876
3.3,-31.8804
3.32,-32.0733
3.34,-32.2661
3.36,-32.4589
3.38,-32.6518
3.4,-32.8446
3.42,-33.0374
3.44,-33.2302
3.46,-33.423
3.48,-33.6157
3.5,-33.8085
3.52,-34.0013
3.54,-34.194
3.56,-34.3868
3.58,-34.5795
3.6,-34.7723
3.62,-34.965
3.64,-35.1577
3.66,-35.3505
3.68,-35.5432
3.7,-35.7359
3.72,-35.9286
3.74,-36.1212
3.76,-36.3139
3.78,-36.5066
3.8,-36.6993
3.82,-36.8919
3.84,-37.0846
3.86,-37.2772
3.88,-37.4698
3.9,-37.6625
3.92,-37.8551
3.94,-38.0477
3.96,-38.2403
3.98,-38.4329
4,-38.6254
4.02,-38.818
4.04,-39.0106
4.06,-39.2031
4.08,-39.3957
4.1,-39.5882
4.12,-39.7808
4.14,-39.9733
4.16,-40.1658
4.18,-40.3583
4.2,-40.5508
4.22,-40.7433
4.24,-40.9358
4.26,-41.1282
4.28,-41.3207
4.3,-41.5132
4.32,-41.7056
4.34,-41.898
4.36,-42.0905
4.38,-42.2829
4.4,-42.4753
4.42,-42.6677
4.44,-42.8601
4.46,-43.0525
4.48,-43.2448
4.5,-43.4372
4.52,-43.6295
4.54,-43.8219
4.56,-44.0142
4.58,-44.2066
4.6,-44.3989
4.62,-44.5912
4.64,-44.7835
4.66,-44.9758
4.68,-45.168
4.7,-45.3603
4.72,-45.5526
4.74,-45.7448
4.76,-45.937
4.78,-46.1293
4.8,-46.3215
4.82,-46.5137
4.84,-46.7059
4.86,-46.8981
4.88,-47.0903
4.9,-47.2824
4.92,-47.4746
4.94,-47.6667
4.96,-47.8589
4.98,-48.051
5,-48.2431
5.02,-48.4352
5.04,-48.6273
5.06,-48.8194
5.08,-49.0115
5.1,-49.2035
5.12,-49.3956
5.14,-49.5876
5.16,-49.7797
5.18,-49.9717
5.2,-50.1637
5.22,-50.3557
5.24,-50.5477
5.26,-50.7397
5.28,-50.9316
5.3,-51.1236
5.32,-51.3155
5.34,-51.5075
5.36,-51.6994
5.38,-51.8913
5.4,-52.0832
5.42,-52.2751
5.44,-52.4669
5.46,-52.6588
5.48,-52.8507
5.5,-53.0425
5.52,-53.2343
5.54,-53.4262
5.56,-53.618
5.58,-53.8098
5.6,-54.0016
5.62,-54.1933
5.64,-54.3851
5.66,-54.5768
5.68,-54.7686
5.7,-54.9603
5.72,-55.152
5.74,-55.3437
5.76,-55.5354
5.78,-55.7271
5.8,-55.9187
5.82,-56.1104
5.84,-56.302
5.86,-56.4937
5.88,-56.6853
5.9,-56.8769
5.92,-57.0685
5.94,-57.2601
5.96,-57.4516
5.98,-57.6432
6,-57.8347
6.02,-58.0263
6.04,-58.2178
6.06,-58.4093
6.08,-58.6008
6.1,-58.7923
6.12,-58.9837
6.14,-59.1752
6.16,-59.3666
6.18,-59.558
6.2,-59.7495
6.22,-59.9409
6.24,-60.1322
6.26,-60.3236
6.28,-60.515
6.3,-60.7063
6.32,-60.8977
6.34,-61.089
6.36,-61.2803
6.38,-61.4716
6.4,-61.6629
6.42,-61.8541
6.44,-62.0454
6.46,-62.2366
6.48,-62.4279
6.5,-62.6191
6.52,-62.8103
6.54,-63.0015
6.56,-63.1926
6.58,-63.3838
6.6,-63.575
6.62,-63.7661
6.64,-63.9572
6.66,-64.1483
6.68,-64.3394
6.7,-64.5305
6.72,-64.7215
6.74,-64.9126
6.76,-65.1036
6.78,-65.2946
6.8,-65.4856
6.82,-65.6766
6.84,-65.8676
6.86,-66.0586
6.88,-66.2495
6.9,-66.4404
6.92,-66.6314
6.94,-66.8223
6.96,-67.0132
6.98,-67.204
7,-67.3949
7.02,-67.5857
7.04,-67.7766
7.06,-67.9674
7.08,-68.1582
7.1,-68.349
7.12,-68.5397
7.14,-68.7305
7.16,-68.9212
7.18,-69.1119
7.2,-69.3027
7.22,-69.4934
7.24,-69.684
7.26,-69.8747
7.28,-70.0653
7.3,-70.256
7.32,-70.4466
7.34,-70.6372
7.36,-70.8278
7.38,-71.0184
7.4,-71.2089
7.42,-71.3994
7.44,-71.59
7.46,-71.7805
7.48,-71.971
7.5,-72.1614
7.52,-72.3519
7.54,-72.5423
7.56,-72.7328
7.58,-72.9232
7.6,-73.1136
7.62,-73.304
7.64,-73.4943
7.66,-73.6847
7.68,-73.875
7.7,-74.0653
7.72,-74.2556
7.74,-74.4459
7.76,-74.6362
7.78,-74.8264
7.8,-75.0166
7.82,-75.2069
7.84,-75.3971
7.86,-75.5872
7.88,-75.7774
7.9,-75.9676
7.92,-76.1577
7.94,-76.3478
7.96,-76.5379
7.98,-76.728
8,-76.918
8.02,-77.1081
8.04,-77.2981
8.06,-77.4881
8.08,-77.6781
8.1,-77.8681
8.12,-78.0581
8.14,-78.248
8.16,-78.4379
8.18,-78.6278
8.2,-78.8177
8.22,-79.0076
8.24,-79.1975
8.26,-79.3873
8.28,-79.5771
8.3,-79.7669
8.32,-79.9567
8.34,-80.1465
8.36,-80.3362
8.38,-80.526
8.4,-80.7157
8.42,-80.9054
8.44,-81.0951
8.46,-81.2847
8.48,-81.4744
8.5,-81.664
8.52,-81.8536
8.54,-82.0432
8.56,-82.2327
8.58,-82.4223
8.6,-82.6118
8.62,-82.8013
8.64,-82.9908
8.66,-83.1803
8.68,-83.3698
8.7,-83.5592
8.72,-83.7486
8.74,-83.938
8.76,-84.1274
8.78,-84.3168
8.8,-84.5061
8.82,-84.6954
8.84,-84.8848
8.86,-85.074
8.88,-85.2633
8.9,-85.4526
8.92,-85.6418
8.94,-85.831
8.96,-86.0202
8.98,-86.2094
9,-86.3985
9.02,-86.5877
9.04,-86.7768
9.06,-86.9659
9.08,-87.155
9.1,-87.344
9.12,-87.533
9.14,-87.7221
9.16,-87.9111
9.18,-88.1
9.2,-88.289
9.22,-88.4779
9.24,-88.6669
9.26,-88.8558
9.28,-89.0446
9.3,-89.2335
9.32,-89.4223
9.34,-89.6111
9.36,-89.7999
9.38,-89.9887
9.4,-90.1775
9.42,-90.3662
9.44,-90.5549
9.46,-90.7436
9.48,-90.9323
9.5,-91.121
9.52,-91.3096
9.54,-91.4982
9.56,-91.6868
9.58,-91.8754
9.6,-92.0639
9.62,-92.2525
9.64,-92.441
9.66,-92.6295
9.68,-92.8179
9.7,-93.0064
9.72,-93.1948
9.74,-93.3832
9.76,-93.5716
9.78,-93.76
9.8,-93.9483
9.82,-94.1366
9.84,-94.3249
9.86,-94.5132
9.88,-94.7014
9.9,-94.8897
9.92,-95.0779
9.94,-95.2661
9.96,-95.4543
9.98,-95.6424
10,-95.8305
10.02,-96.0186
10.04,-96.2067
10.06,-96.3948
10.08,-96.5828
10.1,-96.7708
10.12,-96.9588
10.14,-97.1468
10.16,-97.3348
10.18,-97.5227
10.2,-97.7106
10.22,-97.8985
10.24,-98.0863
10.26,-98.2742
10.28,-98.462
10.3,-98.6498
10.32,-98.8376
10.34,-99.0253
10.36,-99.213
10.38,-99.4007
10.4,-99.5884
10.42,-99.7761
10.44,-99.9637
10.46,-100.151
10.48,-100.339
10.5,-100.526
10.52,-100.714
10.54,-100.902
10.56,-101.089
10.58,-101.277
10.6,-101.464
10.62,-101.651
10.64,-101.839
10.66,-102.026
10.68,-102.214
10.7,-102.401
10.72,-102.588
10.74,-102.775
10.76,-102.963
10.78,-103.15
10.8,-103.337
10.82,-103.524
10.84,-103.712
10.86,-103.899
10.88,-104.086
10.9,-104.273
10.92,-104.46
10.94,-104.647
10.96,-104.834
10.98,-105.021
11,-105.208
11.02,-105.395
11.04,-105.582
11.06,-105.769
11.08,-105.956
11.1,-106.143
11.12,-106.329
11.14,-106.516
11.16,-106.703
11.18,-106.89
11.2,-107.076
11.22,-107.263
11.24,-107.45
11.26,-107.637
11.28,-107.823
11.3,-108.01
11.32,-108.196
11.34,-108.383
11.36,-108.569
11.38,-108.756
11.4,-108.942
11.42,-109.129
11.44,-109.315
11.46,-109.502
11.48,-109.688
11.5,-109.874
11.52,-110.061
11.54,-110.247
11.56,-110.433
11.58,-110.62
11.6,-110.806
11.62,-110.992
11.64,-111.178
11.66,-111.364
11.68,-111.551
11.7,-111.737
11.72,-111.923
11.74,-112.109
11.76,-112.295
11.78,-112.481
11.8,-112.667
11.82,-112.853
11.84,-113.039
11.86,-113.224
11.88,-113.41
11.9,-113.596
11.92,-113.782
11.94,-113.968
11.96,-114.154
11.98,-114.339
12,-114.525
12.02,-114.711
12.04,-114.896
12.06,-115.082
12.08,-115.267
12.1,-115.453
12.12,-115.639
12.14,-115.824
12.16,-116.01
12.18,-116.195
12.2,-116.381
12.22,-116.566
12.24,-116.751
12.26,-116.937
12.28,-117.122
12.3,-117.307
12.32,-117.493
12.34,-117.678
12.36,-117.863
12.38,-118.048
12.4,-118.233
12.42,-118.418
12.44,-118.604
12.46,-118.789
12.48,-118.974
12.5,-119.159
12.52,-119.344
12.54,-119.529
12.56,-119.714
12.58,-119.898
12.6,-120.083
12.62,-120.268
12.64,-120.453
12.66,-120.638
12.68,-120.823
12.7,-121.007
12.72,-121.192
12.74,-121.377
12.76,-121.561
12.78,-121.746
12.8,-121.931
12.82,-122.115
12.84,-122.3
12.86,-122.484
12.88,-122.669
12.9,-122.853
12.92,-123.037
12.94,-123.222
12.96,-123.406
12.98,-123.591
13,-123.775
13.02,-123.959
13.04,-124.143
13.06,-124.328
13.08,-124.512
13.1,-124.696
13.12,-124.88
13.14,-125.064
13.16,-125.248
13.18,-125.432
13.2,-125.616
13.22,-125.8
13.24,-125.984
13.26,-126.168
13.28,-126.352
13.3,-126.536
13.32,-126.72
13.34,-126.903
13.36,-127.087
13.38,-127.271
13.4,-127.455
13.42,-127.638
13.44,-127.822
13.46,-128.006
13.48,-128.189
13.5,-128.373
13.52,-128.556
13.54,-128.74
13.56,-128.923
13.58,-129.107
13.6,-129.29
13.62,-129.473
13.64,-129.657
13.66,-129.84
13.68,-130.023
13.7,-130.206
13.72,-130.39
13.74,-130.573
13.76,-130.756
13.78,-130.939
13.8,-131.122
13.82,-131.305
13.84,-131.488
13.86,-131.671
13.88,-131.854
13.9,-132.037
13.92,-132.22
13.94,-132.403
13.96,-132.586
13.98,-132.768
14,-132.951
14.02,-133.134
14.04,-133.317
14.06,-133.499
14.08,-133.682
14.1,-133.865
14.12,-134.047
14.14,-134.23
14.16,-134.412
14.18,-134.595
14.2,-134.777
14.22,-134.959
14.24,-135.142
14.26,-135.324
14.28,-135.506
14.3,-135.689
14.32,-135.871
14.34,-136.053
14.36,-136.235
14.38,-136.417
14.4,-136.6
14.42,-136.782
14.44,-136.964
14.46,-137.146
14.48,-137.328
14.5,-137.51
14.52,-137.692
14.54,-137.873
14.56,-138.055
14.58,-138.237
14.6,-138.419
14.62,-138.601
14.64,-138.782
14.66,-138.964
14.68,-139.146
14.7,-139.327
14.72,-139.509
14.74,-139.69
14.76,-139.872
14.78,-140.053
14.8,-140.235
14.82,-140.416
14.84,-140.597
14.86,-140.779
14.88,-140.96
14.9,-141.141
14.92,-141.323
14.94,-141.504
14.96,-141.685
14.98,-141.866
15,-142.047
15.02,-142.228
15.04,-142.409
15.06,-142.59
15.08,-142.771
15.1,-142.952
15.12,-143.133
15.14,-143.314
15.16,-143.495
15.18,-143.675
15.2,-143.856
15.22,-144.037
15.24,-144.217
15.26,-144.398
15.28,-144.579
15.3,-144.759
15.32,-144.94
15.34,-145.12
15.36,-145.301
15.38,-145.481
15.4,-145.661
15.42,-145.842
15.44,-146.022
15.46,-146.202
15.48,-146.383
15.5,-146.563
15.52,-146.743
15.54,-146.923
15.56,-147.103
15.58,-147.283
15.6,-147.463
15.62,-147.643
15.64,-147.823
15.66,-148.003
15.68,-148.183
15.7,-148.363
15.72,-148.542
15.74,-148.722
15.76,-148.902
15.78,-149.082
15.8,-149.261
15.82,-149.441
15.84,-149.62
15.86,-149.8
15.88,-149.979
15.9,-150.159
15.92,-150.338
15.94,-150.518
15.96,-150.697
15.98,-150.876
16,-151.056
16.02,-151.235
16.04,-151.414
16.06,-151.593
16.08,-151.772
16.1,-151.951
16.12,-152.13
16.14,-152.309
16.16,-152.488
16.18,-152.667
16.2,-152.846
16.22,-153.025
16.24,-153.204
16.26,-153.383
16.28,-153.561
16.3,-153.74
16.32,-153.919
16.34,-154.097
16.36,-154.276
16.38,-154.454
16.4,-154.633
16.42,-154.811
16.44,-154.99
16.46,-155.168
16.48,-155.347
16.5,-155.525
16.52,-155.703
16.54,-155.881
16.56,-156.059
16.58,-156.238
16.6,-156.416
16.62,-156.594
16.64,-156.772
16.66,-156.95
16.68,-157.128
16.7,-157.306
16.72,-157.484
16.74,-157.661
16.76,-157.839
16.78,-158.017
16.8,-158.195
16.82,-158.372
16.84,-158.55
16.86,-158.727
16.88,-158.905
16.9,-159.083
16.92,-159.26
16.94,-159.437
16.96,-159.615
16.98,-159.792
17,-159.969
17.02,-160.147
17.04,-160.324
17.06,-160.501
17.08,-160.678
17.1,-160.855
17.12,-161.032
17.14,-161.209
17.16,-161.386
17.18,-161.563
17.2,-161.74
17.22,-161.917
17.24,-162.094
17.26,-162.271
17.28,-162.447
17.3,-162.624
17.32,-162.801
17.34,-162.977
17.36,-163.154
17.38,-163.33
17.4,-163.507
17.42,-163.683
17.44,-163.86
17.46,-164.036
17.48,-164.212
17.5,-164.388
17.52,-164.565
17.54,-164.741
17.56,-164.917
17.58,-165.093
17.6,-165.269
17.62,-165.445
17.64,-165.621
17.66,-165.797
17.68,-165.973
17.7,-166.149
17.72,-166.324
17.74,-166.5
17.76,-166.676
17.78,-166.852
17.8,-167.027
17.82,-167.203
17.84,-167.378
17.86,-167.554
17.88,-167.729
17.9,-167.905
17.92,-168.08
17.94,-168.255
17.96,-168.43
17.98,-168.606
18,-168.781
18.02,-168.956
18.04,-169.131
18.06,-169.306
18.08,-169.481
18.1,-169.656
18.12,-169.831
18.14,-170.006
18.16,-170.181
18.18,-170.355
18.2,-170.53
18.22,-170.705
18.24,-170.88
18.26,-171.054
18.28,-171.229
18.3,-171.403
18.32,-171.578
18.34,-171.752
18.36,-171.926
18.38,-172.101
18.4,-172.275
18.42,-172.449
18.44,-172.623
18.46,-172.798
18.48,-172.972
18.5,-173.146
18.52,-173.32
18.54,-173.494
18.56,-173.668
18.58,-173.842
18.6,-174.015
18.62,-174.189
18.64,-174.363
18.66,-174.537
18.68,-174.71
18.7,-174.884
18.72,-175.057
18.74,-175.231
18.76,-175.404
18.78,-175.578
18.8,-175.751
18.82,-175.924
18.84,-176.098
18.86,-176.271
18.88,-176.444
18.9,-176.617
18.92,-176.79
18.94,-176.963
18.96,-177.136
18.98,-177.309
19,-177.482
19.02,-177.655
19.04,-177.828
19.06,-178.001
19.08,-178.173
19.1,-178.346
19.12,-178.519
19.14,-178.691
19.16,-178.864
19.18,-179.036
19.2,-179.209
19.22,-179.381
19.24,-179.553
19.26,-179.725
19.28,-179.898
19.3,-180.07
19.32,-180.242
19.34,-180.414
19.36,-180.586
19.38,-180.758
19.4,-180.93
19.42,-181.102
19.44,-181.274
19.46,-181.446
19.48,-181.617
19.5,-181.789
19.52,-181.961
19.54,-182.132
19.56,-182.304
19.58,-182.475
19.6,-182.647
19.62,-182.818
19.64,-182.989
19.66,-183.161
19.68,-183.332
19.7,-183.503
19.72,-183.674
19.74,-183.845
19.76,-184.017
19.78,-184.188
19.8,-184.358
19.82,-184.529
19.84,-184.7
19.86,-184.871
19.88,-185.042
19.9,-185.212
19.92,-185.383
19.94,-185.554
19.96,-185.724
19.98,-185.895
20,-186.065
20.02,-186.236
20.04,-186.406
20.06,-186.576
20.08,-186.746
20.1,-186.917
20.12,-187.087
20.14,-187.257
20.16,-187.427
20.18,-187.597
20.2,-187.767
20.22,-187.937
20.24,-188.107
20.26,-188.276
20.28,-188.446
20.3,-188.616
20.32,-188.785
20.34,-188.955
20.36,-189.125
20.38,-189.294
20.4,-189.463
20.42,-189.633
20.44,-189.802
20.46,-189.971
20.48,-190.141
20.5,-190.31
20.52,-190.479
20.54,-190.648
20.56,-190.817
20.58,-190.986
20.6,-191.155
20.62,-191.324
20.64,-191.492
20.66,-191.661
20.68,-191.83
20.7,-191.998
20.72,-192.167
20.74,-192.336
20.76,-192.504
20.78,-192.672
20.8,-192.841
20.82,-193.009
20.84,-193.177
20.86,-193.346
20.88,-193.514
20.9,-193.682
20.92,-193.85
20.94,-194.018
20.96,-194.186
20.98,-194.354
21,-194.522
21.02,-194.689
21.04,-194.857
21.06,-195.025
21.08,-195.192
21.1,-195.36
21.12,-195.527
21.14,-195.695
21.16,-195.862
21.18,-196.03
21.2,-196.197
21.22,-196.364
21.24,-196.531
21.26,-196.698
21.28,-196.865
21.3,-197.032
21.32,-197.199
21.34,-197.366
21.36,-197.533
21.38,-197.7
21.4,-197.867
21.42,-198.033
21.44,-198.2
21.46,-198.367
21.48,-198.533
21.5,-198.699
21.52,-198.866
21.54,-199.032
21.56,-199.198
21.58,-199.365
21.6,-199.531
21.62,-199.697
21.64,-199.863
21.66,-200.029
21.68,-200.195
21.7,-200.361
21.72,-200.527
21.74,-200.693
21.76,-200.858
21.78,-201.024
21.8,-201.19
21.82,-201.355
21.84,-201.521
21.86,-201.686
21.88,-201.851
21.9,-202.017
21.92,-202.182
21.94,-202.347
21.96,-202.512
21.98,-202.677
22,-202.842
22.02,-203.007
22.04,-203.172
22.06,-203.337
22.08,-203.502
22.1,-203.667
22.12,-203.831
22.14,-203.996
22.16,-204.161
22.18,-204.325
22.2,-204.49
22.22,-204.654
22.24,-204.818
22.26,-204.983
22.28,-205.147
22.3,-205.311
22.32,-205.475
22.34,-205.639
22.36,-205.803
22.38,-205.967
22.4,-206.131
22.42,-206.295
22.44,-206.458
22.46,-206.622
22.48,-206.786
22.5,-206.949
22.52,-207.113
22.54,-207.276
22.56,-207.44
22.58,-207.603
22.6,-207.766
22.62,-207.93
22.64,-208.093
22.66,-208.256
22.68,-208.419
22.7,-208.582
22.72,-208.745
22.74,-208.908
22.76,-209.07
22.78,-209.233
22.8,-209.396
22.82,-209.558
22.84,-209.721
22.86,-209.883
22.88,-210.046
22.9,-210.208
22.92,-210.37
22.94,-210.533
22.96,-210.695
22.98,-210.857
23,-211.019
23.02,-211.181
23.04,-211.343
23.06,-211.505
23.08,-211.667
23.1,-211.828
23.12,-211.99
23.14,-212.152
23.16,-212.313
23.18,-212.475
23.2,-212.636
23.22,-212.798
23.24,-212.959
23.26,-213.12
23.28,-213.281
23.3,-213.442
23.32,-213.604
23.34,-213.765
23.36,-213.925
23.38,-214.086
23.4,-214.247
23.42,-214.408
23.44,-214.569
23.46,-214.729
23.48,-214.89
23.5,-215.05
23.52,-215.211
23.54,-215.371
23.56,-215.531
23.58,-215.692
23.6,-215.852
23.62,-216.012
23.64,-216.172
23.66,-216.332
23.68,-216.492
23.7,-216.652
23.72,-216.812
23.74,-216.971
23.76,-217.131
23.78,-217.291
23.8,-217.45
23.82,-217.61
23.84,-217.769
23.86,-217.928
23.88,-218.088
23.9,-218.247
23.92,-218.406
23.94,-218.565
23.96,-218.724
23.98,-218.883
24,-219.042
24.02,-219.201
24.04,-219.36
24.06,-219.518
24.08,-219.677
24.1,-219.835
24.12,-219.994
24.14,-220.152
24.16,-220.311
24.18,-220.469
24.2,-220.627
24.22,-220.785
24.24,-220.944
24.26,-221.102
24.28,-221.26
24.3,-221.417
24.32,-221.575
24.34,-221.733
24.36,-221.891
24.38,-222.048
24.4,-222.206
24.42,-222.363
24.44,-222.521
24.46,-222.678
24.48,-222.836
24.5,-222.993
24.52,-223.15
24.54,-223.307
24.56,-223.464
24.58,-223.621
24.6,-223.778
24.62,-223.935
24.64,-224.092
24.66,-224.248
24.68,-224.405
24.7,-224.561
24.72,-224.718
24.74,-224.874
24.76,-225.031
24.78,-225.187
24.8,-225.343
24.82,-225.499
24.84,-225.655
24.86,-225.811
24.88,-225.967
24.9,-226.123
24.92,-226.279
24.94,-226.435
24.96,-226.591
24.98,-226.746
25,-226.902
25.02,-227.057
25.04,-227.213
25.06,-227.368
25.08,-227.523
25.1,-227.678
25.12,-227.833
25.14,-227.988
25.16,-228.143
25.18,-228.298
25.2,-228.453
25.22,-228.608
25.24,-228.763
25.26,-228.917
25.28,-229.072
25.3,-229.226
25.32,-229.381
25.34,-229.535
25.36,-229.689
25.38,-229.844
25.4,-229.998
25.42,-230.152
25.44,-230.306
25.46,-230.46
25.48,-230.614
25.5,-230.767
25.52,-230.921
25.54,-231.075
25.56,-231.228
25.58,-231.382
25.6,-231.535
25.62,-231.688
25.64,-231.842
25.66,-231.995
25.68,-232.148
25.7,-232.301
25.72,-232.454
25.74,-232.607
25.76,-232.76
25.78,-232.913
25.8,-233.065
25.82,-233.218
25.84,-233.371
25.86,-233.523
25.88,-233.675
25.9,-233.828
25.92,-233.98
25.94,-234.132
25.96,-234.284
25.98,-234.436
26,-234.588
26.02,-234.74
26.04,-234.892
26.06,-235.044
26.08,-235.196
26.1,-235.347
26.12,-235.499
26.14,-235.65
26.16,-235.802
26.18,-235.953
26.2,-236.104
26.22,-236.255
26.24,-236.406
26.26,-236.557
26.28,-236.708
26.3,-236.859
26.32,-237.01
26.34,-237.161
26.36,-237.311
26.38,-237.462
26.4,-237.612
26.42,-237.763
26.44,-237.913
26.46,-238.064
26.48,-238.214
26.5,-238.364
26.52,-238.514
26.54,-238.664
26.56,-238.814
26.58,-238.964
26.6,-239.113
26.62,-239.263
26.64,-239.413
26.66,-239.562
26.68,-239.712
26.7,-239.861
26.72,-240.01
26.74,-240.159
26.76,-240.309
26.78,-240.458
26.8,-240.607
26.82,-240.755
26.84,-240.904
26.86,-241.053
26.88,-241.202
26.9,-241.35
26.92,-241.499
26.94,-241.647
26.96,-241.796
26.98,-241.944
27,-242.092
27.02,-242.24
27.04,-242.388
27.06,-242.536
27.08,-242.684
27.1,-242.832
27.12,-242.98
27.14,-243.128
27.16,-243.275
27.18,-243.423
27.2,-243.57
27.22,-243.717
27.24,-243.865
27.26,-244.012
27.28,-244.159
27.3,-244.306
27.32,-244.453
27.34,-244.6
27.36,-244.747
27.38,-244.894
27.4,-245.04
27.42,-245.187
27.44,-245.333
27.46,-245.48
27.48,-245.626
27.5,-245.772
27.52,-245.918
27.54,-246.065
27.56,-246.211
27.58,-246.357
27.6,-246.502
27.62,-246.648
27.64,-246.794
27.66,-246.939
27.68,-247.085
27.7,-247.23
27.72,-247.376
27.74,-247.521
27.76,-247.666
27.78,-247.812
27.8,-247.957
27.82,-248.102
27.84,-248.246
27.86,-248.391
27.88,-248.536
27.9,-248.681
27.92,-248.825
27.94,-248.97
27.96,-249.114
27.98,-249.258
28,-249.403
28.02,-249.547
28.04,-249.691
28.06,-249.835
28.08,-249.979
28.1,-250.123
28.12,-250.267
28.14,-250.41
28.16,-250.554
28.18,-250.697
28.2,-250.841
28.22,-250.984
28.24,-251.127
28.26,-251.271
28.28,-251.414
28.3,-251.557
28.32,-251.7
28.34,-251.842
28.36,-251.985
28.38,-252.128
28.4,-252.271
28.42,-252.413
28.44,-252.555
28.46,-252.698
28.48,-252.84
28.5,-252.982
28.52,-253.124
28.54,-253.266
28.56,-253.408
28.58,-253.55
28.6,-253.692
28.62,-253.834
28.64,-253.975
28.66,-254.117
28.68,-254.258
28.7,-254.4
28.72,-254.541
28.74,-254.682
28.76,-254.823
28.78,-254.964
28.8,-255.105
28.82,-255.246
28.84,-255.387
28.86,-255.527
28.88,-255.668
28.9,-255.808
28.92,-255.949
28.94,-256.089
28.96,-256.229
28.98,-256.37
29,-256.51
29.02,-256.65
29.04,-256.79
29.06,-256.929
29.08,-257.069
29.1,-257.209
29.12,-257.348
29.14,-257.488
29.16,-257.627
29.18,-257.766
29.2,-257.906
29.22,-258.045
29.24,-258.184
29.26,-258.323
29.28,-258.462
29.3,-258.6
29.32,-258.739
29.34,-258.878
29.36,-259.016
29.38,-259.155
29.4,-259.293
29.42,-259.431
29.44,-259.569
29.46,-259.708
29.48,-259.846
29.5,-259.983
29.52,-260.121
29.54,-260.259
29.56,-260.397
29.58,-260.534
29.6,-260.672
29.62,-260.809
29.64,-260.946
29.66,-261.084
29.68,-261.221
29.7,-261.358
29.72,-261.495
29.74,-261.631
29.76,-261.768
29.78,-261.905
29.8,-262.041
29.82,-262.178
29.84,-262.314
29.86,-262.451
29.88,-262.587
29.9,-262.723
29.92,-262.859
29.94,-262.995
29.96,-263.131
29.98,-263.267
30,-263.402
30.02,-263.538
30.04,-263.673
30.06,-263.809
30.08,-263.944
30.1,-264.079
30.12,-264.215
30.14,-264.35
30.16,-264.485
30.18,-264.619
30.2,-264.754
30.22,-264.889
30.24,-265.024
30.26,-265.158
30.28,-265.292
30.3,-265.427
30.32,-265.561
30.34,-265.695
30.36,-265.829
30.38,-265.963
30.4,-266.097
30.42,-266.231
30.44,-266.364
30.46,-266.498
30.48,-266.632
30.5,-266.765
30.52,-266.898
30.54,-267.032
30.56,-267.165
30.58,-267.298
30.6,-267.431
30.62,-267.564
30.64,-267.696
30.66,-267.829
30.68,-267.962
30.7,-268.094
30.72,-268.226
30.74,-268.359
30.76,-268.491
30.78,-268.623
30.8,-268.755
30.82,-268.887
30.84,-269.019
30.86,-269.151
30.88,-269.282
30.9,-269.414
30.92,-269.545
30.94,-269.677
30.96,-269.808
30.98,-269.939
31,-270.07
31.02,-270.201
31.04,-270.332
31.06,-270.463
31.08,-270.594
31.1,-270.724
31.12,-270.855
31.14,-270.985
31.16,-271.115
31.18,-271.246
31.2,-271.376
31.22,-271.506
31.24,-271.636
31.26,-271.766
31.28,-271.895
31.3,-272.025
31.32,-272.155
31.34,-272.284
31.36,-272.413
31.38,-272.543
31.4,-272.672
31.42,-272.801
31.44,-272.93
31.46,-273.059
31.48,-273.188
31.5,-273.316
31.52,-273.445
31.54,-273.573
31.56,-273.702
31.58,-273.83
31.6,-273.958
31.62,-274.087
31.64,-274.215
31.66,-274.342
31.68,-274.47
31.7,-274.598
31.72,-274.726
31.74,-274.853
31.76,-274.981
31.78,-275.108
31.8,-275.235
31.82,-275.362
31.84,-275.489
31.86,-275.616
31.88,-275.743
31.9,-275.87
31.92,-275.997
31.94,-276.123
31.96,-276.25
31.98,-276.376
32,-276.502
32.02,-276.628
32.04,-276.755
32.06,-276.881
32.08,-277.006
32.1,-277.132
32.12,-277.258
32.14,-277.383
32.16,-277.509
32.18,-277.634
32.2,-277.76
32.22,-277.885
32.24,-278.01
32.26,-278.135
32.28,-278.26
32.3,-278.384
32.32,-278.509
32.34,-278.634
32.36,-278.758
32.38,-278.883
32.4,-279.007
32.42,-279.131
32.44,-279.255
32.46,-279.379
32.48,-279.503
32.5,-279.627
32.52,-279.75
32.54,-279.874
32.56,-279.997
32.58,-280.121
32.6,-280.244
32.62,-280.367
32.64,-280.49
32.66,-280.613
32.68,-280.736
32.7,-280.859
32.72,-280.982
32.74,-281.104
32.76,-281.227
32.78,-281.349
32.8,-281.471
32.82,-281.593
32.84,-281.715
32.86,-281.837
32.88,-281.959
32.9,-282.081
32.92,-282.203
32.94,-282.324
32.96,-282.446
32.98,-282.567
33,-282.688
33.02,-282.809
33.04,-282.93
33.06,-283.051
33.08,-283.172
33.1,-283.293
33.12,-283.413
33.14,-283.534
33.16,-283.654
33.18,-283.775
33.2,-283.895
33.22,-284.015
33.24,-284.135
33.26,-284.255
33.28,-284.375
33.3,-284.494
33.32,-284.614
33.34,-284.733
33.36,-284.853
33.38,-284.972
33.4,-285.091
33.42,-285.21
33.44,-285.329
33.46,-285.448
33.48,-285.567
33.5,-285.685
33.52,-285.804
33.54,-285.922
33.56,-286.041
33.58,-286.159
33.6,-286.277
33.62,-286.395
33.64,-286.513
33.66,-286.631
33.68,-286.749
33.7,-286.866
33.72,-286.984
33.74,-287.101
33.76,-287.218
33.78,-287.335
33.8,-287.452
33.82,-287.569
33.84,-287.686
33.86,-287.803
33.88,-287.92
33.9,-288.036
33.92,-288.153
33.94,-288.269
33.96,-288.385
33.98,-288.501
34,-288.617
34.02,-288.733
34.04,-288.849
34.06,-288.965
34.08,-289.08
34.1,-289.196
34.12,-289.311
34.14,-289.426
34.16,-289.541
34.18,-289.656
34.2,-289.771
34.22,-289.886
34.24,-290.001
34.26,-290.115
34.28,-290.23
34.3,-290.344
34.32,-290.458
34.34,-290.573
34.36,-290.687
34.38,-290.801
34.4,-290.914
34.42,-291.028
34.44,-291.142
34.46,-291.255
34.48,-291.369
34.5,-291.482
34.52,-291.595
34.54,-291.708
34.56,-291.821
34.58,-291.934
34.6,-292.047
34.62,-292.159
34.64,-292.272
34.66,-292.384
34.68,-292.497
34.7,-292.609
34.72,-292.721
34.74,-292.833
34.76,-292.945
34.78,-293.057
34.8,-293.168
34.82,-293.28
34.84,-293.391
34.86,-293.503
34.88,-293.614
34.9,-293.725
34.92,-293.836
34.94,-293.947
34.96,-294.057
34.98,-294.168
35,-294.279
35.02,-294.389
35.04,-294.499
35.06,-294.61
35.08,-294.72
35.1,-294.83
35.12,-294.94
35.14,-295.049
35.16,-295.159
35.18,-295.269
35.2,-295.378
35.22,-295.487
35.24,-295.596
35.26,-295.706
35.28,-295.815
35.3,-295.923
35.32,-296.032
35.34,-296.141
35.36,-296.249
35.38,-296.358
35.4,-296.466
35.42,-296.574
35.44,-296.682
35.46,-296.79
35.48,-296.898
35.5,-297.006
35.52,-297.114
35.54,-297.221
35.56,-297.328
35.58,-297.436
35.6,-297.543
35.62,-297.65
35.64,-297.757
35.66,-297.864
35.68,-297.97
35.7,-298.077
35.72,-298.184
35.74,-298.29
35.76,-298.396
35.78,-298.502
35.8,-298.608
35.82,-298.714
35.84,-298.82
35.86,-298.926
35.88,-299.031
35.9,-299.137
35.92,-299.242
35.94,-299.347
35.96,-299.453
35.98,-299.558
36,-299.662
36.02,-299.767
36.04,-299.872
36.06,-299.976
36.08,-300.081
36.1,-300.185
36.12,-300.289
36.14,-300.393
36.16,-300.497
36.18,-300.601
36.2,-300.705
36.22,-300.809
36.24,-300.912
36.26,-301.015
36.28,-301.119
36.3,-301.222
36.32,-301.325
36.34,-301.428
36.36,-301.531
36.38,-301.633
36.4,-301.736
36.42,-301.838
36.44,-301.941
36.46,-302.043
36.48,-302.145
36.5,-302.247
36.52,-302.349
36.54,-302.451
36.56,-302.552
36.58,-302.654
36.6,-302.755
36.62,-302.856
36.64,-302.958
36.66,-303.059
36.68,-303.16
36.7,-303.26
36.72,-303.361
36.74,-303.462
36.76,-303.562
36.78,-303.663
36.8,-303.763
36.82,-303.863
36.84,-303.963
36.86,-304.063
36.88,-304.162
36.9,-304.262
36.92,-304.362
36.94,-304.461
36.96,-304.56
36.98,-304.659
37,-304.758
37.02,-304.857
37.04,-304.956
37.06,-305.055
37.08,-305.153
37.1,-305.252
37.12,-305.35
37.14,-305.448
37.16,-305.547
37.18,-305.644
37.2,-305.742
37.22,-305.84
37.24,-305.938
37.26,-306.035
37.28,-306.133
37.3,-306.23
37.32,-306.327
37.34,-306.424
37.36,-306.521
37.38,-306.618
37.4,-306.714
37.42,-306.811
37.44,-306.907
37.46,-307.003
37.48,-307.1
37.5,-307.196
37.52,-307.292
37.54,-307.387
37.56,-307.483
37.58,-307.579
37.6,-307.674
37.62,-307.769
37.64,-307.865
37.66,-307.96
37.68,-308.055
37.7,-308.149
37.72,-308.244
37.74,-308.339
37.76,-308.433
37.78,-308.528
37.8,-308.622
37.82,-308.716
37.84,-308.81
37.86,-308.904
37.88,-308.997
37.9,-309.091
37.92,-309.185
37.94,-309.278
37.96,-309.371
37.98,-309.464
38,-309.557
38.02,-309.65
38.04,-309.743
38.06,-309.836
38.08,-309.928
38.1,-310.02
38.12,-310.113
38.14,-310.205
38.16,-310.297
38.18,-310.389
38.2,-310.481
38.22,-310.572
38.24,-310.664
38.26,-310.755
38.28,-310.846
38.3,-310.938
38.32,-311.029
38.34,-311.12
38.36,-311.21
38.38,-311.301
38.4,-311.391
38.42,-311.482
38.44,-311.572
38.46,-311.662
38.48,-311.752
38.5,-311.842
38.52,-311.932
38.54,-312.022
38.56,-312.111
38.58,-312.201
38.6,-312.29
38.62,-312.379
38.64,-312.468
38.66,-312.557
38.68,-312.646
38.7,-312.735
38.72,-312.823
38.74,-312.912
38.76,-313
38.78,-313.088
38.8,-313.176
38.82,-313.264
38.84,-313.352
38.86,-313.44
38.88,-313.527
38.9,-313.614
38.92,-313.702
38.94,-313.789
38.96,-313.876
38.98,-313.963
39,-314.05
39.02,-314.136
39.04,-314.223
39.06,-314.309
39.08,-314.396
39.1,-314.482
39.12,-314.568
39.14,-314.654
39.16,-314.739
39.18,-314.825
39.2,-314.911
39.22,-314.996
39.24,-315.081
39.26,-315.166
39.28,-315.251
39.3,-315.336
39.32,-315.421
39.34,-315.506
39.36,-315.59
39.38,-315.675
39.4,-315.759
39.42,-315.843
39.44,-315.927
39.46,-316.011
39.48,-316.095
39.5,-316.178
39.52,-316.262
39.54,-316.345
39.56,-316.428
39.58,-316.512
39.6,-316.595
39.62,-316.677
39.64,-316.76
39.66,-316.843
39.68,-316.925
39.7,-317.008
39.72,-317.09
39.74,-317.172
39.76,-317.254
39.78,-317.336
39.8,-317.417
39.82,-317.499
39.84,-317.58
39.86,-317.662
39.88,-317.743
39.9,-317.824
39.92,-317.905
39.94,-317.986
39.96,-318.066
39.98,-318.147
40,-318.227
40.02,-318.308
40.04,-318.388
40.06,-318.468
40.08,-318.548
40.1,-318.627
40.12,-318.707
40.14,-318.787
40.16,-318.866
40.18,-318.945
40.2,-319.024
40.22,-319.103
40.24,-319.182
40.26,-319.261
40.28,-319.339
40.3,-319.418
40.32,-319.496
40.34,-319.574
40.36,-319.653
40.38,-319.73
40.4,-319.808
40.42,-319.886
40.44,-319.964
40.46,-320.041
40.48,-320.118
40.5,-320.195
40.52,-320.272
40.54,-320.349
40.56,-320.426
40.58,-320.503
40.6,-320.579
40.62,-320.656
40.64,-320.732
40.66,-320.808
40.68,-320.884
40.7,-320.96
40.72,-321.036
40.74,-321.111
40.76,-321.187
40.78,-321.262
40.8,-321.337
40.82,-321.412
40.84,-321.487
40.86,-321.562
40.88,-321.637
40.9,-321.711
40.92,-321.786
40.94,-321.86
40.96,-321.934
40.98,-322.008
41,-322.082
41.02,-322.156
41.04,-322.229
41.06,-322.303
41.08,-322.376
41.1,-322.45
41.12,-322.523
41.14,-322.596
41.16,-322.668
41.18,-322.741
41.2,-322.814
41.22,-322.886
41.24,-322.958
41.26,-323.031
41.28,-323.103
41.3,-323.175
41.32,-323.246
41.34,-323.318
41.36,-323.389
41.38,-323.461
41.4,-323.532
41.42,-323.603
41.44,-323.674
41.46,-323.745
41.48,-323.816
41.5,-323.886
41.52,-323.957
41.54,-324.027
41.56,-324.097
41.58,-324.167
41.6,-324.237
41.62,-324.307
41.64,-324.377
41.66,-324.446
41.68,-324.516
41.7,-324.585
41.72,-324.654
41.74,-324.723
41.76,-324.792
41.78,-324.86
41.8,-324.929
41.82,-324.997
41.84,-325.066
41.86,-325.134
41.88,-325.202
41.9,-325.27
41.92,-325.338
41.94,-325.405
41.96,-325.473
41.98,-325.54
42,-325.607
42.02,-325.674
42.04,-325.741
42.06,-325.808
42.08,-325.875
42.1,-325.941
42.12,-326.008
42.14,-326.074
42.16,-326.14
42.18,-326.206
42.2,-326.272
42.22,-326.338
42.24,-326.404
42.26,-326.469
42.28,-326.534
42.3,-326.6
42.32,-326.665
42.34,-326.73
42.36,-326.794
42.38,-326.859
42.4,-326.924
42.42,-326.988
42.44,-327.052
42.46,-327.116
42.48,-327.18
42.5,-327.244
42.52,-327.308
42.54,-327.372
42.56,-327.435
42.58,-327.498
42.6,-327.562
42.62,-327.625
42.64,-327.688
42.66,-327.75
42.68,-327.813
42.7,-327.875
42.72,-327.938
42.74,-328
42.76,-328.062
42.78,-328.124
42.8,-328.186
42.82,-328.248
42.84,-328.309
42.86,-328.371
42.88,-328.432
42.9,-328.493
42.92,-328.554
42.94,-328.615
42.96,-328.676
42.98,-328.736
43,-328.797
43.02,-328.857
43.04,-328.917
43.06,-328.977
43.08,-329.037
43.1,-329.097
43.12,-329.157
43.14,-329.216
43.16,-329.276
43.18,-329.335
43.2,-329.394
43.22,-329.453
43.24,-329.512
43.26,-329.57
43.28,-329.629
43.3,-329.687
43.32,-329.746
43.34,-329.804
43.36,-329.862
43.38,-329.92
43.4,-329.977
43.42,-330.035
43.44,-330.092
43.46,-330.15
43.48,-330.207
43.5,-330.264
43.52,-330.321
43.54,-330.378
43.56,-330.434
43.58,-330.491
43.6,-330.547
43.62,-330.603
43.64,-330.659
43.66,-330.715
43.68,-330.771
43.7,-330.827
43.72,-330.882
43.74,-330.938
43.76,-330.993
43.78,-331.048
43.8,-331.103
43.82,-331.158
43.84,-331.213
43.86,-331.267
43.88,-331.322
43.9,-331.376
43.92,-331.43
43.94,-331.484
43.96,-331.538
43.98,-331.592
44,-331.645
44.02,-331.699
44.04,-331.752
44.06,-331.805
44.08,-331.858
44.1,-331.911
44.12,-331.964
44.14,-332.017
44.16,-332.069
44.18,-332.122
44.2,-332.174
44.22,-332.226
44.24,-332.278
44.26,-332.33
44.28,-332.381
44.3,-332.433
44.32,-332.484
44.34,-332.535
44.36,-332.587
44.38,-332.638
44.4,-332.688
44.42,-332.739
44.44,-332.79
44.46,-332.84
44.48,-332.89
44.5,-332.94
44.52,-332.99
44.54,-333.04
44.56,-333.09
44.58,-333.14
44.6,-333.189
44.62,-333.238
44.64,-333.288
44.66,-333.337
44.68,-333.386
44.7,-333.434
44.72,-333.483
44.74,-333.531
44.76,-333.58
44.78,-333.628
44.8,-333.676
44.82,-333.724
44.84,-333.772
44.86,-333.819
44.88,-333.867
44.9,-333.914
44.92,-333.961
44.94,-334.009
44.96,-334.056
44.98,-334.102
45,-334.149
45.02,-334.196
45.04,-334.242
45.06,-334.288
45.08,-334.334
45.1,-334.38
45.12,-334.426
45.14,-334.472
45.16,-334.517
45.18,-334.563
45.2,-334.608
45.22,-334.653
45.24,-334.698
45.26,-334.743
45.28,-334.788
45.3,-334.832
45.32,-334.877
45.34,-334.921
45.36,-334.965
45.38,-335.009
45.4,-335.053
45.42,-335.097
45.44,-335.141
45.46,-335.184
45.48,-335.227
45.5,-335.271
45.52,-335.314
45.54,-335.357
45.56,-335.399
45.58,-335.442
45.6,-335.484
45.62,-335.527
45.64,-335.569
45.66,-335.611
45.68,-335.653
45.7,-335.695
45.72,-335.737
45.74,-335.778
45.76,-335.819
45.78,-335.861
45.8,-335.902
45.82,-335.943
45.84,-335.984
45.86,-336.024
45.88,-336.065
45.9,-336.105
45.92,-336.145
45.94,-336.186
45.96,-336.225
45.98,-336.265
46,-336.305
46.02,-336.345
46.04,-336.384
46.06,-336.423
46.08,-336.462
46.1,-336.501
46.12,-336.54
46.14,-336.579
46.16,-336.618
46.18,-336.656
46.2,-336.694
46.22,-336.733
46.24,-336.771
46.26,-336.808
46.28,-336.846
46.3,-336.884
46.32,-336.921
46.34,-336.959
46.36,-336.996
46.38,-337.033
46.4,-337.07
46.42,-337.106
46.44,-337.143
46.46,-337.18
46.48,-337.216
46.5,-337.252
46.52,-337.288
46.54,-337.324
46.56,-337.36
46.58,-337.396
46.6,-337.431
46.62,-337.466
46.64,-337.502
46.66,-337.537
46.68,-337.572
46.7,-337.606
46.72,-337.641
46.74,-337.676
46.76,-337.71
46.78,-337.744
46.8,-337.778
46.82,-337.812
46.84,-337.846
46.86,-337.88
46.88,-337.913
46.9,-337.947
46.92,-337.98
46.94,-338.013
46.96,-338.046
46.98,-338.079
47,-338.112
47.02,-338.144
47.04,-338.177
47.06,-338.209
47.08,-338.241
47.1,-338.273
47.12,-338.305
47.14,-338.337
47.16,-338.368
47.18,-338.4
47.2,-338.431
47.22,-338.462
47.24,-338.493
47.26,-338.524
47.28,-338.555
47.3,-338.586
47.32,-338.616
47.34,-338.646
47.36,-338.677
47.38,-338.707
47.4,-338.737
47.42,-338.766
47.44,-338.796
47.46,-338.826
47.48,-338.855
47.5,-338.884
47.52,-338.913
47.54,-338.942
47.56,-338.971
47.58,-339
47.6,-339.028
47.62,-339.057
47.64,-339.085
47.66,-339.113
47.68,-339.141
47.7,-339.169
47.72,-339.196
47.74,-339.224
47.76,-339.251
47.78,-339.279
47.8,-339.306
47.82,-339.333
47.84,-339.359
47.86,-339.386
47.88,-339.413
47.9,-339.439
47.92,-339.465
47.94,-339.492
47.96,-339.518
47.98,-339.543
48,-339.569
48.02,-339.595
48.04,-339.62
48.06,-339.646
48.08,-339.671
48.1,-339.696
48.12,-339.721
48.14,-339.745
48.16,-339.77
48.18,-339.794
48.2,-339.819
48.22,-339.843
48.24,-339.867
48.26,-339.891
48.28,-339.915
48.3,-339.938
48.32,-339.962
48.34,-339.985
48.36,-340.008
48.38,-340.032
48.4,-340.055
48.42,-340.077
48.44,-340.1
48.46,-340.123
48.48,-340.145
48.5,-340.167
48.52,-340.189
48.54,-340.211
48.56,-340.233
48.58,-340.255
48.6,-340.276
48.62,-340.298
48.64,-340.319
48.66,-340.34
48.68,-340.361
48.7,-340.382
48.72,-340.403
48.74,-340.423
48.76,-340.444
48.78,-340.464
48.8,-340.484
48.82,-340.504
48.84,-340.524
48.86,-340.544
48.88,-340.564
48.9,-340.583
48.92,-340.602
48.94,-340.622
48.96,-340.641
48.98,-340.66
49,-340.678
49.02,-340.697
49.04,-340.715
49.06,-340.734
49.08,-340.752
49.1,-340.77
49.12,-340.788
49.14,-340.806
49.16,-340.824
49.18,-340.841
49.2,-340.859
49.22,-340.876
49.24,-340.893
49.26,-340.91
49.28,-340.927
49.3,-340.944
49.32,-340.96
49.34,-340.977
49.36,-340.993
49.38,-341.009
49.4,-341.025
49.42,-341.041
49.44,-341.057
49.46,-341.072
49.48,-341.088
49.5,-341.103
49.52,-341.118
49.54,-341.133
49.56,-341.148
49.58,-341.163
49.6,-341.178
49.62,-341.192
49.64,-341.207
49.66,-341.221
49.68,-341.235
49.7,-341.249
49.72,-341.263
49.74,-341.276
49.76,-341.29
49.78,-341.303
49.8,-341.317
49.82,-341.33
49.84,-341.343
49.86,-341.356
49.88,-341.368
49.9,-341.381
49.92,-341.393
49.94,-341.406
49.96,-341.418
49.98,-341.43
50,-341.442
50.02,-341.454
50.04,-341.465
50.06,-341.477
50.08,-341.488
50.1,-341.499
50.12,-341.51
50.14,-341.521
50.16,-341.532
50.18,-341.543
50.2,-341.553
50.22,-341.564
50.24,-341.574
50.26,-341.584
50.28,-341.594
50.3,-341.604
50.32,-341.614
50.34,-341.623
50.36,-341.633
50.38,-341.642
50.4,-341.651
50.42,-341.66
50.44,-341.669
50.46,-341.678
50.48,-341.687
50.5,-341.695
50.52,-341.704
50.54,-341.712
50.56,-341.72
50.58,-341.728
50.6,-341.736
50.62,-341.743
50.64,-341.751
50.66,-341.758
50.68,-341.766
50.7,-341.773
50.72,-341.78
50.74,-341.787
50.76,-341.794
50.78,-341.8
50.8,-341.807
50.82,-341.813
50.84,-341.819
50.86,-341.825
50.88,-341.831
50.9,-341.837
50.92,-341.843
50.94,-341.848
50.96,-341.854
50.98,-341.859
51,-341.864
51.02,-341.869
51.04,-341.874
51.06,-341.878
51.08,-341.883
51.1,-341.888
51.12,-341.892
51.14,-341.896
51.16,-341.9
51.18,-341.904
51.2,-341.908
51.22,-341.911
51.24,-341.915
51.26,-341.918
51.28,-341.922
51.3,-341.925
51.32,-341.928
51.34,-341.931
51.36,-341.933
51.38,-341.936
51.4,-341.938
51.42,-341.941
51.44,-341.943
51.46,-341.945
51.48,-341.947
51.5,-341.949
51.52,-341.95
51.54,-341.952
51.56,-341.953
51.58,-341.954
51.6,-341.955
51.62,-341.956
51.64,-341.957
51.66,-341.958
51.68,-341.959
51.7,-341.959
51.72,-341.959
51.74,-341.96
51.76,-341.96
51.78,-341.96
51.8,-341.959
51.82,-341.959
51.84,-341.959
51.86,-341.958
51.88,-341.957
51.9,-341.956
51.92,-341.955
51.94,-341.954
51.96,-341.953
51.98,-341.952
52,-341.95
52.02,-341.948
52.04,-341.947
52.06,-341.945
52.08,-341.943
52.1,-341.94
52.12,-341.938
52.14,-341.936
52.16,-341.933
52.18,-341.93
52.2,-341.928
52.22,-341.925
52.24,-341.921
52.26,-341.918
52.28,-341.915
52.3,-341.911
52.32,-341.908
52.34,-341.904
52.36,-341.9
52.38,-341.896
52.4,-341.892
52.42,-341.888
52.44,-341.883
52.46,-341.879
52.48,-341.874
52.5,-341.869
52.52,-341.864
52.54,-341.859
52.56,-341.854
52.58,-341.849
52.6,-341.843
52.62,-341.838
52.64,-341.832
52.66,-341.826
52.68,-341.82
52.7,-341.814
52.72,-341.808
52.74,-341.802
52.76,-341.795
52.78,-341.788
52.8,-341.782
52.82,-341.775
52.84,-341.768
52.86,-341.761
52.88,-341.753
52.9,-341.746
52.92,-341.739
52.94,-341.731
52.96,-341.723
52.98,-341.715
53,-341.707
53.02,-341.699
53.04,-341.691
53.06,-341.682
53.08,-341.674
53.1,-341.665
53.12,-341.656
53.14,-341.647
53.16,-341.638
53.18,-341.629
53.2,-341.62
53.22,-341.61
53.24,-341.601
53.26,-341.591
53.28,-341.581
53.3,-341.571
53.32,-341.561
53.34,-341.551
53.36,-341.541
53.38,-341.53
53.4,-341.52
53.42,-341.509
53.44,-341.498
53.46,-341.487
53.48,-341.476
53.5,-341.465
53.52,-341.454
53.54,-341.442
53.56,-341.431
53.58,-341.419
53.6,-341.407
53.62,-341.395
53.64,-341.383
53.66,-341.371
53.68,-341.358
53.7,-341.346
53.72,-341.333
53.74,-341.321
53.76,-341.308
53.78,-341.295
53.8,-341.282
53.82,-341.269
53.84,-341.255
53.86,-341.242
53.88,-341.228
53.9,-341.214
53.92,-341.201
53.94,-341.187
53.96,-341.173
53.98,-341.158
54,-341.144
54.02,-341.129
54.04,-341.115
54.06,-341.1
54.08,-341.085
54.1,-341.07
54.12,-341.055
54.14,-341.04
54.16,-341.025
54.18,-341.009
54.2,-340.994
54.22,-340.978
54.24,-340.962
54.26,-340.946
54.28,-340.93
54.3,-340.914
54.32,-340.898
54.34,-340.881
54.36,-340.865
54.38,-340.848
54.4,-340.831
54.42,-340.814
54.44,-340.797
54.46,-340.78
54.48,-340.763
54.5,-340.745
54.52,-340.728
54.54,-340.71
54.56,-340.692
54.58,-340.674
54.6,-340.656
54.62,-340.638
54.64,-340.62
54.66,-340.601
54.68,-340.583
54.7,-340.564
54.72,-340.545
54.74,-340.527
54.76,-340.508
54.78,-340.488
54.8,-340.469
54.82,-340.45
54.84,-340.43
54.86,-340.411
54.88,-340.391
54.9,-340.371
54.92,-340.351
54.94,-340.331
54.96,-340.311
54.98,-340.29
55,-340.27
55.02,-340.249
55.04,-340.229
55.06,-340.208
55.08,-340.187
55.1,-340.166
55.12,-340.145
55.14,-340.123
55.16,-340.102
55.18,-340.081
55.2,-340.059
55.22,-340.037
55.24,-340.015
55.26,-339.993
55.28,-339.971
55.3,-339.949
55.32,-339.927
55.34,-339.904
55.36,-339.881
55.38,-339.859
55.4,-339.836
55.42,-339.813
55.44,-339.79
55.46,-339.767
55.48,-339.743
55.5,-339.72
55.52,-339.696
55.54,-339.673
55.56,-339.649
55.58,-339.625
55.6,-339.601
55.62,-339.577
55.64,-339.553
55.66,-339.528
55.68,-339.504
55.7,-339.479
55.72,-339.455
55.74,-339.43
55.76,-339.405
55.78,-339.38
55.8,-339.355
55.82,-339.329
55.84,-339.304
55.86,-339.278
55.88,-339.253
55.9,-339.227
55.92,-339.201
55.94,-339.175
55.96,-339.149
55.98,-339.123
56,-339.097
56.02,-339.07
56.04,-339.044
56.06,-339.017
56.08,-338.99
56.1,-338.963
56.12,-338.936
56.14,-338.909
56.16,-338.882
56.18,-338.854
56.2,-338.827
56.22,-338.799
56.24,-338.772
56.26,-338.744
56.28,-338.716
56.3,-338.688
56.32,-338.66
56.34,-338.631
56.36,-338.603
56.38,-338.575
56.4,-338.546
56.42,-338.517
56.44,-338.488
56.46,-338.459
56.48,-338.43
56.5,-338.401
56.52,-338.372
56.54,-338.343
56.56,-338.313
56.58,-338.283
56.6,-338.254
56.62,-338.224
56.64,-338.194
56.66,-338.164
56.68,-338.134
56.7,-338.103
56.72,-338.073
56.74,-338.042
56.76,-338.012
56.78,-337.981
56.8,-337.95
56.82,-337.919
56.84,-337.888
56.86,-337.857
56.88,-337.826
56.9,-337.794
56.92,-337.763
56.94,-337.731
56.96,-337.7
56.98,-337.668
57,-337.636
57.02,-337.604
57.04,-337.572
57.06,-337.539
57.08,-337.507
57.1,-337.474
57.12,-337.442
57.14,-337.409
57.16,-337.376
57.18,-337.343
57.2,-337.31
57.22,-337.277
57.24,-337.244
57.26,-337.211
57.28,-337.177
57.3,-337.144
57.32,-337.11
57.34,-337.076
57.36,-337.042
57.38,-337.008
57.4,-336.974
57.42,-336.94
57.44,-336.905
57.46,-336.871
57.48,-336.837
57.5,-336.802
57.52,-336.767
57.54,-336.732
57.56,-336.697
57.58,-336.662
57.6,-336.627
57.62,-336.592
57.64,-336.556
57.66,-336.521
57.68,-336.485
57.7,-336.45
57.72,-336.414
57.74,-336.378
57.76,-336.342
57.78,-336.306
57.8,-336.269
57.82,-336.233
57.84,-336.197
57.86,-336.16
57.88,-336.123
57.9,-336.087
57.92,-336.05
57.94,-336.013
57.96,-335.976
57.98,-335.939
58,-335.901
58.02,-335.864
58.04,-335.826
58.06,-335.789
58.08,-335.751
58.1,-335.713
58.12,-335.675
58.14,-335.637
58.16,-335.599
58.18,-335.561
58.2,-335.523
58.22,-335.484
58.24,-335.446
58.26,-335.407
58.28,-335.368
58.3,-335.33
58.32,-335.291
58.34,-335.252
58.36,-335.213
58.38,-335.173
58.4,-335.134
58.42,-335.095
58.44,-335.055
58.46,-335.015
58.48,-334.976
58.5,-334.936
58.52,-334.896
58.54,-334.856
58.56,-334.816
58.58,-334.775
58.6,-334.735
58.62,-334.695
58.64,-334.654
58.66,-334.613
58.68,-334.573
58.7,-334.532
58.72,-334.491
58.74,-334.45
58.76,-334.409
58.78,-334.367
58.8,-334.326
58.82,-334.285
58.84,-334.243
58.86,-334.202
58.88,-334.16
58.9,-334.118
58.92,-334.076
58.94,-334.034
58.96,-333.992
58.98,-333.95
59,-333.907
59.02,-333.865
59.04,-333.822
59.06,-333.78
59.08,-333.737
59.1,-333.694
59.12,-333.651
59.14,-333.608
59.16,-333.565
59.18,-333.522
59.2,-333.479
59.22,-333.435
59.24,-333.392
59.26,-333.348
59.28,-333.305
59.3,-333.261
59.32,-333.217
59.34,-333.173
59.36,-333.129
59.38,-333.085
59.4,-333.04
59.42,-332.996
59.44,-332.952
59.46,-332.907
59.48,-332.863
59.5,-332.818
59.52,-332.773
59.54,-332.728
59.56,-332.683
59.58,-332.638
59.6,-332.593
59.62,-332.547
59.64,-332.502
59.66,-332.457
59.68,-332.411
59.7,-332.365
59.72,-332.32
59.74,-332.274
59.76,-332.228
59.78,-332.182
59.8,-332.136
59.82,-332.089
59.84,-332.043
59.86,-331.997
59.88,-331.95
59.9,-331.904
59.92,-331.857
59.94,-331.81
59.96,-331.763
59.98,-331.716
60,-331.669
60.02,-331.622
60.04,-331.575
60.06,-331.527
60.08,-331.48
60.1,-331.433
60.12,-331.385
60.14,-331.337
60.16,-331.289
60.18,-331.242
60.2,-331.194
60.22,-331.146
60.24,-331.097
60.26,-331.049
60.28,-331.001
60.3,-330.953
60.32,-330.904
60.34,-330.855
60.36,-330.807
60.38,-330.758
60.4,-330.709
60.42,-330.66
60.44,-330.611
60.46,-330.562
60.48,-330.513
60.5,-330.464
60.52,-330.414
60.54,-330.365
60.56,-330.315
60.58,-330.265
60.6,-330.216
60.62,-330.166
60.64,-330.116
60.66,-330.066
60.68,-330.016
60.7,-329.966
60.72,-329.916
60.74,-329.865
60.76,-329.815
60.78,-329.764
60.8,-329.714
60.82,-329.663
60.84,-329.612
60.86,-329.561
60.88,-329.51
60.9,-329.459
60.92,-329.408
60.94,-329.357
60.96,-329.306
60.98,-329.254
61,-329.203
61.02,-329.151
61.04,-329.1
61.06,-329.048
61.08,-328.996
61.1,-328.944
61.12,-328.892
61.14,-328.84
61.16,-328.788
61.18,-328.736
61.2,-328.684
61.22,-328.631
61.24,-328.579
61.26,-328.526
61.28,-328.474
61.3,-328.421
61.32,-328.368
61.34,-328.315
61.36,-328.262
61.38,-328.209
61.4,-328.156
61.42,-328.103
61.44,-328.05
61.46,-327.996
61.48,-327.943
61.5,-327.889
61.52,-327.836
61.54,-327.782
61.56,-327.728
61.58,-327.674
61.6,-327.62
61.62,-327.566
61.64,-327.512
61.66,-327.458
61.68,-327.404
61.7,-327.35
61.72,-327.295
61.74,-327.241
61.76,-327.186
61.78,-327.131
61.8,-327.077
61.82,-327.022
61.84,-326.967
61.86,-326.912
61.88,-326.857
61.9,-326.802
61.92,-326.747
61.94,-326.691
61.96,-326.636
61.98,-326.58
62,-326.525
62.02,-326.469
62.04,-326.414
62.06,-326.358
62.08,-326.302
62.1,-326.246
62.12,-326.19
62.14,-326.134
62.16,-326.078
62.18,-326.022
62.2,-325.965
62.22,-325.909
62.24,-325.853
62.26,-325.796
62.28,-325.739
62.3,-325.683
62.32,-325.626
62.34,-325.569
62.36,-325.512
62.38,-325.455
62.4,-325.398
62.42,-325.341
62.44,-325.284
62.46,-325.227
62.48,-325.169
62.5,-325.112
62.52,-325.054
62.54,-324.997
62.56,-324.939
62.58,-324.881
62.6,-324.824
62.62,-324.766
62.64,-324.708
62.66,-324.65
62.68,-324.592
62.7,-324.533
62.72,-324.475
62.74,-324.417
62.76,-324.358
62.78,-324.3
62.8,-324.241
62.82,-324.183
62.84,-324.124
62.86,-324.065
62.88,-324.007
62.9,-323.948
62.92,-323.889
62.94,-323.83
62.96,-323.771
62.98,-323.711
63,-323.652
63.02,-323.593
63.04,-323.533
63.06,-323.474
63.08,-323.414
63.1,-323.355
63.12,-323.295
63.14,-323.235
63.16,-323.176
63.18,-323.116
63.2,-323.056
63.22,-322.996
63.24,-322.936
63.26,-322.875
63.28,-322.815
63.3,-322.755
63.32,-322.694
63.34,-322.634
63.36,-322.574
63.38,-322.513
63.4,-322.452
63.42,-322.392
63.44,-322.331
63.46,-322.27
63.48,-322.209
63.5,-322.148
63.52,-322.087
63.54,-322.026
63.56,-321.965
63.58,-321.903
63.6,-321.842
63.62,-321.781
63.64,-321.719
63.66,-321.658
63.68,-321.596
63.7,-321.534
63.72,-321.473
63.74,-321.411
63.76,-321.349
63.78,-321.287
63.8,-321.225
63.82,-321.163
63.84,-321.101
63.86,-321.039
63.88,-320.977
63.9,-320.914
63.92,-320.852
63.94,-320.789
63.96,-320.727
63.98,-320.664
64,-320.602
64.02,-320.539
64.04,-320.476
64.06,-320.413
64.08,-320.351
64.1,-320.288
64.12,-320.225
64.14,-320.161
64.16,-320.098
64.18,-320.035
64.2,-319.972
64.22,-319.909
64.24,-319.845
64.26,-319.782
64.28,-319.718
64.3,-319.655
64.32,-319.591
64.34,-319.527
64.36,-319.463
64.38,-319.4
64.4,-319.336
64.42,-319.272
64.44,-319.208
64.46,-319.144
64.48,-319.08
64.5,-319.015
64.52,-318.951
64.54,-318.887
64.56,-318.822
64.58,-318.758
64.6,-318.693
64.62,-318.629
64.64,-318.564
64.66,-318.5
64.68,-318.435
64.7,-318.37
64.72,-318.305
64.74,-318.24
64.76,-318.175
64.78,-318.11
64.8,-318.045
64.82,-317.98
64.84,-317.915
64.86,-317.849
64.88,-317.784
64.9,-317.719
64.92,-317.653
64.94,-317.588
64.96,-317.522
64.98,-317.457
65,-317.391
65.02,-317.325
65.04,-317.259
65.06,-317.194
65.08,-317.128
65.1,-317.062
65.12,-316.996
65.14,-316.93
65.16,-316.864
65.18,-316.797
65.2,-316.731
65.22,-316.665
65.24,-316.598
65.26,-316.532
65.28,-316.466
65.3,-316.399
65.32,-316.332
65.34,-316.266
65.36,-316.199
65.38,-316.132
65.4,-316.066
65.42,-315.999
65.44,-315.932
65.46,-315.865
65.48,-315.798
65.5,-315.731
65.52,-315.664
65.54,-315.597
65.56,-315.529
65.58,-315.462
65.6,-315.395
65.62,-315.327
65.64,-315.26
65.66,-315.192
65.68,-315.125
65.7,-315.057
65.72,-314.99
65.74,-314.922
65.76,-314.854
65.78,-314.786
65.8,-314.718
65.82,-314.651
65.84,-314.583
65.86,-314.515
65.88,-314.447
65.9,-314.378
65.92,-314.31
65.94,-314.242
65.96,-314.174
65.98,-314.105
66,-314.037
66.02,-313.969
66.04,-313.9
66.06,-313.832
66.08,-313.763
66.1,-313.694
66.12,-313.626
66.14,-313.557
66.16,-313.488
66.18,-313.419
66.2,-313.351
66.22,-313.282
66.24,-313.213
66.26,-313.144
66.28,-313.075
66.3,-313.005
66.32,-312.936
66.34,-312.867
66.36,-312.798
66.38,-312.729
66.4,-312.659
66.42,-312.59
66.44,-312.52
66.46,-312.451
66.48,-312.381
66.5,-312.312
66.52,-312.242
66.54,-312.172
66.56,-312.103
66.58,-312.033
66.6,-311.963
66.62,-311.893
66.64,-311.823
66.66,-311.753
66.68,-311.683
66.7,-311.613
66.72,-311.543
66.74,-311.473
66.76,-311.403
66.78,-311.333
66.8,-311.262
66.82,-311.192
66.84,-311.122
66.86,-311.051
66.88,-310.981
66.9,-310.91
66.92,-310.84
66.94,-310.769
66.96,-310.698
66.98,-310.628
67,-310.557
67.02,-310.486
67.04,-310.415
67.06,-310.345
67.08,-310.274
67.1,-310.203
67.12,-310.132
67.14,-310.061
67.16,-309.99
67.18,-309.918
67.2,-309.847
67.22,-309.776
67.24,-309.705
67.26,-309.634
67.28,-309.562
67.3,-309.491
67.32,-309.419
67.34,-309.348
67.36,-309.277
67.38,-309.205
67.4,-309.133
67.42,-309.062
67.44,-308.99
67.46,-308.918
67.48,-308.847
67.5,-308.775
67.52,-308.703
67.54,-308.631
67.56,-308.559
67.58,-308.487
67.6,-308.415
67.62,-308.343
67.64,-308.271
67.66,-308.199
67.68,-308.127
67.7,-308.055
67.72,-307.983
67.74,-307.91
67.76,-307.838
67.78,-307.766
67.8,-307.693
67.82,-307.621
67.84,-307.548
67.86,-307.476
67.88,-307.403
67.9,-307.331
67.92,-307.258
67.94,-307.186
67.96,-307.113
67.98,-307.04
68,-306.967
68.02,-306.895
68.04,-306.822
68.06,-306.749
68.08,-306.676
68.1,-306.603
68.12,-306.53
68.14,-306.457
68.16,-306.384
68.18,-306.311
68.2,-306.238
68.22,-306.165
68.24,-306.092
68.26,-306.018
68.28,-305.945
68.3,-305.872
68.32,-305.798
68.34,-305.725
68.36,-305.652
68.38,-305.578
68.4,-305.505
68.42,-305.431
68.44,-305.358
68.46,-305.284
68.48,-305.21
68.5,-305.137
68.52,-305.063
68.54,-304.989
68.56,-304.916
68.58,-304.842
68.6,-304.768
68.62,-304.694
68.64,-304.62
68.66,-304.546
68.68,-304.472
68.7,-304.398
68.72,-304.324
68.74,-304.25
68.76,-304.176
68.78,-304.102
68.8,-304.028
68.82,-303.954
68.84,-303.88
68.86,-303.805
68.88,-303.731
68.9,-303.657
68.92,-303.582
68.94,-303.508
68.96,-303.434
68.98,-303.359
69,-303.285
69.02,-303.21
69.04,-303.136
69.06,-303.061
69.08,-302.987
69.1,-302.912
69.12,-302.837
69.14,-302.763
69.16,-302.688
69.18,-302.613
69.2,-302.538
69.22,-302.464
69.24,-302.389
69.26,-302.314
69.28,-302.239
69.3,-302.164
69.32,-302.089
69.34,-302.014
69.36,-301.939
69.38,-301.864
69.4,-301.789
69.42,-301.714
69.44,-301.639
69.46,-301.564
69.48,-301.489
69.5,-301.413
69.52,-301.338
69.54,-301.263
69.56,-301.188
69.58,-301.112
69.6,-301.037
69.62,-300.962
69.64,-300.886
69.66,-300.811
69.68,-300.735
69.7,-300.66
69.72,-300.584
69.74,-300.509
69.76,-300.433
69.78,-300.358
69.8,-300.282
69.82,-300.207
69.84,-300.131
69.86,-300.055
69.88,-299.979
69.9,-299.904
69.92,-299.828
69.94,-299.752
69.96,-299.676
69.98,-299.601
70,-299.525
70.02,-299.449
70.04,-299.373
70.06,-299.297
70.08,-299.221
70.1,-299.145
70.12,-299.069
70.14,-298.993
70.16,-298.917
70.18,-298.841
70.2,-298.765
70.22,-298.689
70.24,-298.612
70.26,-298.536
70.28,-298.46
70.3,-298.384
70.32,-298.308
70.34,-298.231
70.36,-298.155
70.38,-298.079
70.4,-298.002
70.42,-297.926
70.44,-297.85
70.46,-297.773
70.48,-297.697
70.5,-297.62
70.52,-297.544
70.54,-297.467
70.56,-297.391
70.58,-297.314
70.6,-297.238
70.62,-297.161
70.64,-297.085
70.66,-297.008
70.68,-296.931
70.7,-296.855
70.72,-296.778
70.74,-296.701
70.76,-296.624
70.78,-296.548
70.8,-296.471
70.82,-296.394
70.84,-296.317
70.86,-296.241
70.88,-296.164
70.9,-296.087
70.92,-296.01
70.94,-295.933
70.96,-295.856
70.98,-295.779
71,-295.702
71.02,-295.625
71.04,-295.548
71.06,-295.471
71.08,-295.394
71.1,-295.317
71.12,-295.24
71.14,-295.163
71.16,-295.086
71.18,-295.009
71.2,-294.931
71.22,-294.854
71.24,-294.777
71.26,-294.7
71.28,-294.623
71.3,-294.545
71.32,-294.468
71.34,-294.391
71.36,-294.314
71.38,-294.236
71.4,-294.159
71.42,-294.082
71.44,-294.004
71.46,-293.927
71.48,-293.849
71.5,-293.772
71.52,-293.695
71.54,-293.617
71.56,-293.54
71.58,-293.462
71.6,-293.385
71.62,-293.307
71.64,-293.23
71.66,-293.152
71.68,-293.075
71.7,-292.997
71.72,-292.919
71.74,-292.842
71.76,-292.764
71.78,-292.687
71.8,-292.609
71.82,-292.531
71.84,-292.454
71.86,-292.376
71.88,-292.298
71.9,-292.22
71.92,-292.143
71.94,-292.065
71.96,-291.987
71.98,-291.909
72,-291.832
72.02,-291.754
72.04,-291.676
72.06,-291.598
72.08,-291.52
72.1,-291.443
72.12,-291.365
72.14,-291.287
72.16,-291.209
72.18,-291.131
72.2,-291.053
72.22,-290.975
72.24,-290.897
72.26,-290.819
72.28,-290.741
72.3,-290.663
72.32,-290.585
72.34,-290.507
72.36,-290.429
72.38,-290.351
72.4,-290.273
72.42,-290.195
72.44,-290.117
72.46,-290.039
72.48,-289.961
72.5,-289.883
72.52,-289.805
72.54,-289.726
72.56,-289.648
72.58,-289.57
72.6,-289.492
72.62,-289.414
72.64,-289.336
72.66,-289.257
72.68,-289.179
72.7,-289.101
72.72,-289.023
72.74,-288.945
72.76,-288.866
72.78,-288.788
72.8,-288.71
72.82,-288.632
72.84,-288.553
72.86,-288.475
72.88,-288.397
72.9,-288.318
72.92,-288.24
72.94,-288.162
72.96,-288.083
72.98,-288.005
73,-287.927
73.02,-287.848
73.04,-287.77
73.06,-287.692
73.08,-287.613
73.1,-287.535
73.12,-287.457
73.14,-287.378
73.16,-287.3
73.18,-287.221
73.2,-287.143
73.22,-287.064
73.24,-286.986
73.26,-286.907
73.28,-286.829
73.3,-286.751
73.32,-286.672
73.34,-286.594
73.36,-286.515
73.38,-286.437
73.4,-286.358
73.42,-286.28
73.44,-286.201
73.46,-286.123
73.48,-286.044
73.5,-285.965
73.52,-285.887
73.54,-285.808
73.56,-285.73
73.58,-285.651
73.6,-285.573
73.62,-285.494
73.64,-285.416
73.66,-285.337
73.68,-285.258
73.7,-285.18
73.72,-285.101
73.74,-285.023
73.76,-284.944
73.78,-284.865
73.8,-284.787
73.82,-284.708
73.84,-284.629
73.86,-284.551
73.88,-284.472
73.9,-284.394
73.92,-284.315
73.94,-284.236
73.96,-284.158
73.98,-284.079
74,-284
74.02,-283.922
74.04,-283.843
74.06,-283.764
74.08,-283.686
74.1,-283.607
74.12,-283.528
74.14,-283.45
74.16,-283.371
74.18,-283.292
74.2,-283.213
74.22,-283.135
74.24,-283.056
74.26,-282.977
74.28,-282.899
74.3,-282.82
74.32,-282.741
74.34,-282.663
74.36,-282.584
74.38,-282.505
74.4,-282.426
74.42,-282.348
74.44,-282.269
74.46,-282.19
74.48,-282.111
74.5,-282.033
74.52,-281.954
74.54,-281.875
74.56,-281.797
74.58,-281.718
74.6,-281.639
74.62,-281.56
74.64,-281.482
74.66,-281.403
74.68,-281.324
74.7,-281.245
74.72,-281.167
74.74,-281.088
74.76,-281.009
74.78,-280.93
74.8,-280.852
74.82,-280.773
74.84,-280.694
74.86,-280.615
74.88,-280.537
74.9,-280.458
74.92,-280.379
74.94,-280.3
74.96,-280.222
74.98,-280.143
75,-280.064
75.02,-279.985
75.04,-279.907
75.06,-279.828
75.08,-279.749
75.1,-279.67
75.12,-279.592
75.14,-279.513
75.16,-279.434
75.18,-279.355
75.2,-279.277
75.22,-279.198
75.24,-279.119
75.26,-279.041
75.28,-278.962
75.3,-278.883
75.32,-278.804
75.34,-278.726
75.36,-278.647
75.38,-278.568
75.4,-278.489
75.42,-278.411
75.44,-278.332
75.46,-278.253
75.48,-278.175
75.5,-278.096
75.52,-278.017
75.54,-277.939
75.56,-277.86
75.58,-277.781
75.6,-277.702
75.62,-277.624
75.64,-277.545
75.66,-277.466
75.68,-277.388
75.7,-277.309
75.72,-277.23
75.74,-277.152
75.76,-277.073
75.78,-276.994
75.8,-276.916
75.82,-276.837
75.84,-276.758
75.86,-276.68
75.88,-276.601
75.9,-276.523
75.92,-276.444
75.94,-276.365
75.96,-276.287
75.98,-276.208
76,-276.129
76.02,-276.051
76.04,-275.972
76.06,-275.894
76.08,-275.815
76.1,-275.736
76.12,-275.658
76.14,-275.579
76.16,-275.501
76.18,-275.422
76.2,-275.344
76.22,-275.265
76.24,-275.186
76.26,-275.108
76.28,-275.029
76.3,-274.951
76.32,-274.872
76.34,-274.794
76.36,-274.715
76.38,-274.637
76.4,-274.558
76.42,-274.48
76.44,-274.401
76.46,-274.323
76.48,-274.244
76.5,-274.166
76.52,-274.087
76.54,-274.009
76.56,-273.93
76.58,-273.852
76.6,-273.773
76.62,-273.695
76.64,-273.617
76.66,-273.538
76.68,-273.46
76.7,-273.381
76.72,-273.303
76.74,-273.225
76.76,-273.146
76.78,-273.068
76.8,-272.989
76.82,-272.911
76.84,-272.833
76.86,-272.754
76.88,-272.676
76.9,-272.598
76.92,-272.519
76.94,-272.441
76.96,-272.363
76.98,-272.284
77,-272.206
77.02,-272.128
77.04,-272.05
77.06,-271.971
77.08,-271.893
77.1,-271.815
77.12,-271.737
77.14,-271.658
77.16,-271.58
77.18,-271.502
77.2,-271.424
77.22,-271.346
77.24,-271.267
77.26,-271.189
77.28,-271.111
77.3,-271.033
77.32,-270.955
77.34,-270.877
77.36,-270.798
77.38,-270.72
77.4,-270.642
77.42,-270.564
77.44,-270.486
77.46,-270.408
77.48,-270.33
77.5,-270.252
77.52,-270.174
77.54,-270.096
77.56,-270.018
77.58,-269.94
77.6,-269.862
77.62,-269.784
77.64,-269.706
77.66,-269.628
77.68,-269.55
77.7,-269.472
77.72,-269.394
77.74,-269.316
77.76,-269.238
77.78,-269.16
77.8,-269.082
77.82,-269.004
77.84,-268.926
77.86,-268.848
77.88,-268.771
77.9,-268.693
77.92,-268.615
77.94,-268.537
77.96,-268.459
77.98,-268.381
78,-268.304
78.02,-268.226
78.04,-268.148
78.06,-268.07
78.08,-267.993
78.1,-267.915
78.12,-267.837
78.14,-267.759
78.16,-267.682
78.18,-267.604
78.2,-267.526
78.22,-267.449
78.24,-267.371
78.26,-267.294
78.28,-267.216
78.3,-267.138
78.32,-267.061
78.34,-266.983
78.36,-266.906
78.38,-266.828
78.4,-266.75
78.42,-266.673
78.44,-266.595
78.46,-266.518
78.48,-266.44
78.5,-266.363
78.52,-266.285
78.54,-266.208
78.56,-266.131
78.58,-266.053
78.6,-265.976
78.62,-265.898
78.64,-265.821
78.66,-265.744
78.68,-265.666
78.7,-265.589
78.72,-265.512
78.74,-265.434
78.76,-265.357
78.78,-265.28
78.8,-265.202
78.82,-265.125
78.84,-265.048
78.86,-264.971
78.88,-264.893
78.9,-264.816
78.92,-264.739
78.94,-264.662
78.96,-264.585
78.98,-264.508
79,-264.43
79.02,-264.353
79.04,-264.276
79.06,-264.199
79.08,-264.122
79.1,-264.045
79.12,-263.968
79.14,-263.891
79.16,-263.814
79.18,-263.737
79.2,-263.66
79.22,-263.583
79.24,-263.506
79.26,-263.429
79.28,-263.352
79.3,-263.275
79.32,-263.198
79.34,-263.122
79.36,-263.045
79.38,-262.968
79.4,-262.891
79.42,-262.814
79.44,-262.737
79.46,-262.661
79.48,-262.584
79.5,-262.507
79.52,-262.43
79.54,-262.354
79.56,-262.277
79.58,-262.2
79.6,-262.124
79.62,-262.047
79.64,-261.97
79.66,-261.894
79.68,-261.817
79.7,-261.741
79.72,-261.664
79.74,-261.587
79.76,-261.511
79.78,-261.434
79.8,-261.358
79.82,-261.281
79.84,-261.205
79.86,-261.129
79.88,-261.052
79.9,-260.976
79.92,-260.899
79.94,-260.823
79.96,-260.747
79.98,-260.67
80,-260.594
80.02,-260.518
80.04,-260.441
80.06,-260.365
80.08,-260.289
80.1,-260.213
80.12,-260.136
80.14,-260.06
80.16,-259.984
80.18,-259.908
80.2,-259.832
80.22,-259.756
80.24,-259.679
80.26,-259.603
80.28,-259.527
80.3,-259.451
80.32,-259.375
80.34,-259.299
80.36,-259.223
80.38,-259.147
80.4,-259.071
80.42,-258.995
80.44,-258.919
80.46,-258.843
80.48,-258.767
80.5,-258.692
80.52,-258.616
80.54,-258.54
80.56,-258.464
80.58,-258.388
80.6,-258.312
80.62,-258.237
80.64,-258.161
80.66,-258.085
80.68,-258.01
80.7,-257.934
80.72,-257.858
80.74,-257.783
80.76,-257.707
80.78,-257.631
80.8,-257.556
80.82,-257.48
80.84,-257.405
80.86,-257.329
80.88,-257.254
80.9,-257.178
80.92,-257.103
80.94,-257.027
80.96,-256.952
80.98,-256.876
81,-256.801
81.02,-256.725
81.04,-256.65
81.06,-256.575
81.08,-256.499
81.1,-256.424
81.12,-256.349
81.14,-256.274
81.16,-256.198
81.18,-256.123
81.2,-256.048
81.22,-255.973
81.24,-255.898
81.26,-255.822
81.28,-255.747
81.3,-255.672
81.32,-255.597
81.34,-255.522
81.36,-255.447
81.38,-255.372
81.4,-255.297
81.42,-255.222
81.44,-255.147
81.46,-255.072
81.48,-254.997
81.5,-254.922
81.52,-254.848
81.54,-254.773
81.56,-254.698
81.58,-254.623
81.6,-254.548
81.62,-254.474
81.64,-254.399
81.66,-254.324
81.68,-254.249
81.7,-254.175
81.72,-254.1
81.74,-254.025
81.76,-253.951
81.78,-253.876
81.8,-253.802
81.82,-253.727
81.84,-253.653
81.86,-253.578
81.88,-253.504
81.9,-253.429
81.92,-253.355
81.94,-253.28
81.96,-253.206
81.98,-253.131
82,-253.057
82.02,-252.983
82.04,-252.908
82.06,-252.834
82.08,-252.76
82.1,-252.686
82.12,-252.611
82.14,-252.537
82.16,-252.463
82.18,-252.389
82.2,-252.315
82.22,-252.241
82.24,-252.167
82.26,-252.092
82.28,-252.018
82.3,-251.944
82.32,-251.87
82.34,-251.796
82.36,-251.722
82.38,-251.648
82.4,-251.575
82.42,-251.501
82.44,-251.427
82.46,-251.353
82.48,-251.279
82.5,-251.205
82.52,-251.132
82.54,-251.058
82.56,-250.984
82.58,-250.91
82.6,-250.837
82.62,-250.763
82.64,-250.689
82.66,-250.616
82.68,-250.542
82.7,-250.469
82.72,-250.395
82.74,-250.322
82.76,-250.248
82.78,-250.175
82.8,-250.101
82.82,-250.028
82.84,-249.954
82.86,-249.881
82.88,-249.807
82.9,-249.734
82.92,-249.661
82.94,-249.588
82.96,-249.514
82.98,-249.441
83,-249.368
83.02,-249.295
83.04,-249.221
83.06,-249.148
83.08,-249.075
83.1,-249.002
83.12,-248.929
83.14,-248.856
83.16,-248.783
83.18,-248.71
83.2,-248.637
83.22,-248.564
83.24,-248.491
83.26,-248.418
83.28,-248.345
83.3,-248.272
83.32,-248.199
83.34,-248.127
83.36,-248.054
83.38,-247.981
83.4,-247.908
83.42,-247.836
83.44,-247.763
83.46,-247.69
83.48,-247.618
83.5,-247.545
83.52,-247.472
83.54,-247.4
83.56,-247.327
83.58,-247.255
83.6,-247.182
83.62,-247.11
83.64,-247.037
83.66,-246.965
83.68,-246.892
83.7,-246.82
83.72,-246.748
83.74,-246.675
83.76,-246.603
83.78,-246.531
83.8,-246.459
83.82,-246.386
83.84,-246.314
83.86,-246.242
83.88,-246.17
83.9,-246.098
83.92,-246.026
83.94,-245.954
83.96,-245.881
83.98,-245.809
84,-245.737
84.02,-245.665
84.04,-245.593
84.06,-245.522
84.08,-245.45
84.1,-245.378
84.12,-245.306
84.14,-245.234
84.16,-245.162
84.18,-245.09
84.2,-245.019
84.22,-244.947
84.24,-244.875
84.26,-244.804
84.28,-244.732
84.3,-244.66
84.32,-244.589
84.34,-244.517
84.36,-244.446
84.38,-244.374
84.4,-244.303
84.42,-244.231
84.44,-244.16
84.46,-244.088
84.48,-244.017
84.5,-243.945
84.52,-243.874
84.54,-243.803
84.56,-243.732
84.58,-243.66
84.6,-243.589
84.62,-243.518
84.64,-243.447
84.66,-243.375
84.68,-243.304
84.7,-243.233
84.72,-243.162
84.74,-243.091
84.76,-243.02
84.78,-242.949
84.8,-242.878
84.82,-242.807
84.84,-242.736
84.86,-242.665
84.88,-242.594
84.9,-242.524
84.92,-242.453
84.94,-242.382
84.96,-242.311
84.98,-242.24
85,-242.17
85.02,-242.099
85.04,-242.028
85.06,-241.958
85.08,-241.887
85.1,-241.816
85.12,-241.746
85.14,-241.675
85.16,-241.605
85.18,-241.534
85.2,-241.464
85.22,-241.393
85.24,-241.323
85.26,-241.253
85.28,-241.182
85.3,-241.112
85.32,-241.042
85.34,-240.971
85.36,-240.901
85.38,-240.831
85.4,-240.761
85.42,-240.691
85.44,-240.62
85.46,-240.55
85.48,-240.48
85.5,-240.41
85.52,-240.34
85.54,-240.27
85.56,-240.2
85.58,-240.13
85.6,-240.06
85.62,-239.99
85.64,-239.921
85.66,-239.851
85.68,-239.781
85.7,-239.711
85.72,-239.641
85.74,-239.572
85.76,-239.502
85.78,-239.432
85.8,-239.363
85.82,-239.293
85.84,-239.223
85.86,-239.154
85.88,-239.084
85.9,-239.015
85.92,-238.945
85.94,-238.876
85.96,-238.806
85.98,-238.737
86,-238.668
86.02,-238.598
86.04,-238.529
86.06,-238.46
86.08,-238.39
86.1,-238.321
86.12,-238.252
86.14,-238.183
86.16,-238.114
86.18,-238.044
86.2,-237.975
86.22,-237.906
86.24,-237.837
86.26,-237.768
86.28,-237.699
86.3,-237.63
86.32,-237.561
86.34,-237.492
86.36,-237.423
86.38,-237.355
86.4,-237.286
86.42,-237.217
86.44,-237.148
86.46,-237.079
86.48,-237.011
86.5,-236.942
86.52,-236.873
86.54,-236.805
86.56,-236.736
86.58,-236.668
86.6,-236.599
86.62,-236.531
86.64,-236.462
86.66,-236.394
86.68,-236.325
86.7,-236.257
86.72,-236.188
86.74,-236.12
86.76,-236.052
86.78,-235.983
86.8,-235.915
86.82,-235.847
86.84,-235.779
86.86,-235.71
86.88,-235.642
86.9,-235.574
86.92,-235.506
86.94,-235.438
86.96,-235.37
86.98,-235.302
87,-235.234
87.02,-235.166
87.04,-235.098
87.06,-235.03
87.08,-234.962
87.1,-234.894
87.12,-234.826
87.14,-234.759
87.16,-234.691
87.18,-234.623
87.2,-234.555
87.22,-234.488
87.24,-234.42
87.26,-234.353
87.28,-234.285
87.3,-234.217
87.32,-234.15
87.34,-234.082
87.36,-234.015
87.38,-233.947
87.4,-233.88
87.42,-233.813
87.44,-233.745
87.46,-233.678
87.48,-233.61
87.5,-233.543
87.52,-233.476
87.54,-233.409
87.56,-233.342
87.58,-233.274
87.6,-233.207
87.62,-233.14
87.64,-233.073
87.66,-233.006
87.68,-232.939
87.7,-232.872
87.72,-232.805
87.74,-232.738
87.76,-232.671
87.78,-232.604
87.8,-232.537
87.82,-232.47
87.84,-232.404
87.86,-232.337
87.88,-232.27
87.9,-232.203
87.92,-232.137
87.94,-232.07
87.96,-232.003
87.98,-231.937
88,-231.87
88.02,-231.804
88.04,-231.737
88.06,-231.671
88.08,-231.604
88.1,-231.538
88.12,-231.471
88.14,-231.405
88.16,-231.339
88.18,-231.272
88.2,-231.206
88.22,-231.14
88.24,-231.074
88.26,-231.007
88.28,-230.941
88.3,-230.875
88.32,-230.809
88.34,-230.743
88.36,-230.677
88.38,-230.611
88.4,-230.545
88.42,-230.479
88.44,-230.413
88.46,-230.347
88.48,-230.281
88.5,-230.215
88.52,-230.15
88.54,-230.084
88.56,-230.018
88.58,-229.952
88.6,-229.887
88.62,-229.821
88.64,-229.755
88.66,-229.69
88.68,-229.624
88.7,-229.558
88.72,-229.493
88.74,-229.427
88.76,-229.362
88.78,-229.296
88.8,-229.231
88.82,-229.166
88.84,-229.1
88.86,-229.035
88.88,-228.97
88.9,-228.904
88.92,-228.839
88.94,-228.774
88.96,-228.709
88.98,-228.644
89,-228.578
89.02,-228.513
89.04,-228.448
89.06,-228.383
89.08,-228.318
89.1,-228.253
89.12,-228.188
89.14,-228.123
89.16,-228.059
89.18,-227.994
89.2,-227.929
89.22,-227.864
89.24,-227.799
89.26,-227.734
89.28,-227.67
89.3,-227.605
89.32,-227.54
89.34,-227.476
89.36,-227.411
89.38,-227.347
89.4,-227.282
89.42,-227.218
89.44,-227.153
89.46,-227.089
89.48,-227.024
89.5,-226.96
89.52,-226.895
89.54,-226.831
89.56,-226.767
89.58,-226.702
89.6,-226.638
89.62,-226.574
89.64,-226.51
89.66,-226.446
89.68,-226.382
89.7,-226.317
89.72,-226.253
89.74,-226.189
89.76,-226.125
89.78,-226.061
89.8,-225.997
89.82,-225.933
89.84,-225.87
89.86,-225.806
89.88,-225.742
89.9,-225.678
89.92,-225.614
89.94,-225.55
89.96,-225.487
89.98,-225.423
90,-225.359
90.02,-225.296
90.04,-225.232
90.06,-225.169
90.08,-225.105
90.1,-225.041
90.12,-224.978
90.14,-224.915
90.16,-224.851
90.18,-224.788
90.2,-224.724
90.22,-224.661
90.24,-224.598
90.26,-224.534
90.28,-224.471
90.3,-224.408
90.32,-224.345
90.34,-224.282
90.36,-224.218
90.38,-224.155
90.4,-224.092
90.42,-224.029
90.44,-223.966
90.46,-223.903
90.48,-223.84
90.5,-223.777
90.52,-223.714
90.54,-223.652
90.56,-223.589
90.58,-223.526
90.6,-223.463
90.62,-223.4
90.64,-223.338
90.66,-223.275
90.68,-223.212
90.7,-223.15
90.72,-223.087
90.74,-223.024
90.76,-222.962
90.78,-222.899
90.8,-222.837
90.82,-222.774
90.84,-222.712
90.86,-222.65
90.88,-222.587
90.9,-222.525
90.92,-222.463
90.94,-222.4
90.96,-222.338
90.98,-222.276
91,-222.214
91.02,-222.151
91.04,-222.089
91.06,-222.027
91.08,-221.965
91.1,-221.903
91.12,-221.841
91.14,-221.779
91.16,-221.717
91.18,-221.655
91.2,-221.593
91.22,-221.531
91.24,-221.47
91.26,-221.408
91.28,-221.346
91.3,-221.284
91.32,-221.223
91.34,-221.161
91.36,-221.099
91.38,-221.038
91.4,-220.976
91.42,-220.914
91.44,-220.853
91.46,-220.791
91.48,-220.73
91.5,-220.668
91.52,-220.607
91.54,-220.546
91.56,-220.484
91.58,-220.423
91.6,-220.362
91.62,-220.3
91.64,-220.239
91.66,-220.178
91.68,-220.117
91.7,-220.055
91.72,-219.994
91.74,-219.933
91.76,-219.872
91.78,-219.811
91.8,-219.75
91.82,-219.689
91.84,-219.628
91.86,-219.567
91.88,-219.506
91.9,-219.445
91.92,-219.385
91.94,-219.324
91.96,-219.263
91.98,-219.202
92,-219.142
92.02,-219.081
92.04,-219.02
92.06,-218.96
92.08,-218.899
92.1,-218.838
92.12,-218.778
92.14,-218.717
92.16,-218.657
92.18,-218.596
92.2,-218.536
92.22,-218.476
92.24,-218.415
92.26,-218.355
92.28,-218.295
92.3,-218.234
92.32,-218.174
92.34,-218.114
92.36,-218.054
92.38,-217.993
92.4,-217.933
92.42,-217.873
92.44,-217.813
92.46,-217.753
92.48,-217.693
92.5,-217.633
92.52,-217.573
92.54,-217.513
92.56,-217.453
92.58,-217.393
92.6,-217.334
92.62,-217.274
92.64,-217.214
92.66,-217.154
92.68,-217.095
92.7,-217.035
92.72,-216.975
92.74,-216.916
92.76,-216.856
92.78,-216.796
92.8,-216.737
92.82,-216.677
92.84,-216.618
92.86,-216.558
92.88,-216.499
92.9,-216.439
92.92,-216.38
92.94,-216.321
92.96,-216.261
92.98,-216.202
93,-216.143
93.02,-216.084
93.04,-216.025
93.06,-215.965
93.08,-215.906
93.1,-215.847
93.12,-215.788
93.14,-215.729
93.16,-215.67
93.18,-215.611
93.2,-215.552
93.22,-215.493
93.24,-215.434
93.26,-215.375
93.28,-215.316
93.3,-215.258
93.32,-215.199
93.34,-215.14
93.36,-215.081
93.38,-215.023
93.4,-214.964
93.42,-214.905
93.44,-214.847
93.46,-214.788
93.48,-214.73
93.5,-214.671
93.52,-214.613
93.54,-214.554
93.56,-214.496
93.58,-214.437
93.6,-214.379
93.62,-214.321
93.64,-214.262
93.66,-214.204
93.68,-214.146
93.7,-214.088
93.72,-214.029
93.74,-213.971
93.76,-213.913
93.78,-213.855
93.8,-213.797
93.82,-213.739
93.84,-213.681
93.86,-213.623
93.88,-213.565
93.9,-213.507
93.92,-213.449
93.94,-213.391
93.96,-213.333
93.98,-213.275
94,-213.218
94.02,-213.16
94.04,-213.102
94.06,-213.044
94.08,-212.987
94.1,-212.929
94.12,-212.871
94.14,-212.814
94.16,-212.756
94.18,-212.699
94.2,-212.641
94.22,-212.584
94.24,-212.526
94.26,-212.469
94.28,-212.411
94.3,-212.354
94.32,-212.297
94.34,-212.239
94.36,-212.182
94.38,-212.125
94.4,-212.068
94.42,-212.011
94.44,-211.953
94.46,-211.896
94.48,-211.839
94.5,-211.782
94.52,-211.725
94.54,-211.668
94.56,-211.611
94.58,-211.554
94.6,-211.497
94.62,-211.44
94.64,-211.383
94.66,-211.327
94.68,-211.27
94.7,-211.213
94.72,-211.156
94.74,-211.1
94.76,-211.043
94.78,-210.986
94.8,-210.93
94.82,-210.873
94.84,-210.816
94.86,-210.76
94.88,-210.703
94.9,-210.647
94.92,-210.59
94.94,-210.534
94.96,-210.477
94.98,-210.421
95,-210.365
95.02,-210.308
95.04,-210.252
95.06,-210.196
95.08,-210.14
95.1,-210.083
95.12,-210.027
95.14,-209.971
95.16,-209.915
95.18,-209.859
95.2,-209.803
95.22,-209.747
95.24,-209.691
95.26,-209.635
95.28,-209.579
95.3,-209.523
95.32,-209.467
95.34,-209.411
95.36,-209.355
95.38,-209.3
95.4,-209.244
95.42,-209.188
95.44,-209.132
95.46,-209.077
95.48,-209.021
95.5,-208.965
95.52,-208.91
95.54,-208.854
95.56,-208.799
95.58,-208.743
95.6,-208.688
95.62,-208.632
95.64,-208.577
95.66,-208.521
95.68,-208.466
95.7,-208.411
95.72,-208.355
95.74,-208.3
95.76,-208.245
95.78,-208.189
95.8,-208.134
95.82,-208.079
95.84,-208.024
95.86,-207.969
95.88,-207.914
95.9,-207.859
95.92,-207.804
95.94,-207.749
95.96,-207.694
95.98,-207.639
96,-207.584
96.02,-207.529
96.04,-207.474
96.06,-207.419
96.08,-207.364
96.1,-207.309
96.12,-207.255
96.14,-207.2
96.16,-207.145
96.18,-207.091
96.2,-207.036
96.22,-206.981
96.24,-206.927
96.26,-206.872
96.28,-206.818
96.3,-206.763
96.32,-206.709
96.34,-206.654
96.36,-206.6
96.38,-206.545
96.4,-206.491
96.42,-206.437
96.44,-206.382
96.46,-206.328
96.48,-206.274
96.5,-206.22
96.52,-206.166
96.54,-206.111
96.56,-206.057
96.58,-206.003
96.6,-205.949
96.62,-205.895
96.64,-205.841
96.66,-205.787
96.68,-205.733
96.7,-205.679
96.72,-205.625
96.74,-205.571
96.76,-205.517
96.78,-205.464
96.8,-205.41
96.82,-205.356
96.84,-205.302
96.86,-205.249
96.88,-205.195
96.9,-205.141
96.92,-205.088
96.94,-205.034
96.96,-204.98
96.98,-204.927
97,-204.873
97.02,-204.82
97.04,-204.766
97.06,-204.713
97.08,-204.66
97.1,-204.606
97.12,-204.553
97.14,-204.499
97.16,-204.446
97.18,-204.393
97.2,-204.34
97.22,-204.286
97.24,-204.233
97.26,-204.18
97.28,-204.127
97.3,-204.074
97.32,-204.021
97.34,-203.968
97.36,-203.915
97.38,-203.862
97.4,-203.809
97.42,-203.756
97.44,-203.703
97.46,-203.65
97.48,-203.597
97.5,-203.544
97.52,-203.492
97.54,-203.439
97.56,-203.386
97.58,-203.333
97.6,-203.281
97.62,-203.228
97.64,-203.175
97.66,-203.123
97.68,-203.07
97.7,-203.018
97.72,-202.965
97.74,-202.913
97.76,-202.86
97.78,-202.808
97.8,-202.755
97.82,-202.703
97.84,-202.65
97.86,-202.598
97.88,-202.546
97.9,-202.494
97.92,-202.441
97.94,-202.389
97.96,-202.337
97.98,-202.285
98,-202.233
98.02,-202.18
98.04,-202.128
98.06,-202.076
98.08,-202.024
98.1,-201.972
98.12,-201.92
98.14,-201.868
98.16,-201.816
98.18,-201.764
98.2,-201.713
98.22,-201.661
98.24,-201.609
98.26,-201.557
98.28,-201.505
98.3,-201.454
98.32,-201.402
98.34,-201.35
98.36,-201.299
98.38,-201.247
98.4,-201.195
98.42,-201.144
98.44,-201.092
98.46,-201.041
98.48,-200.989
98.5,-200.938
98.52,-200.886
98.54,-200.835
98.56,-200.784
98.58,-200.732
98.6,-200.681
98.62,-200.63
98.64,-200.578
98.66,-200.527
98.68,-200.476
98.7,-200.425
98.72,-200.373
98.74,-200.322
98.76,-200.271
98.78,-200.22
98.8,-200.169
98.82,-200.118
98.84,-200.067
98.86,-200.016
98.88,-199.965
98.9,-199.914
98.92,-199.863
98.94,-199.812
98.96,-199.762
98.98,-199.711
99,-199.66
99.02,-199.609
99.04,-199.558
99.06,-199.508
99.08,-199.457
99.1,-199.406
99.12,-199.356
99.14,-199.305
99.16,-199.255
99.18,-199.204
99.2,-199.153
99.22,-199.103
99.24,-199.052
99.26,-199.002
99.28,-198.952
99.3,-198.901
99.32,-198.851
99.34,-198.801
99.36,-198.75
99.38,-198.7
99.4,-198.65
99.42,-198.599
99.44,-198.549
99.46,-198.499
99.48,-198.449
99.5,-198.399
99.52,-198.349
99.54,-198.299
99.56,-198.249
99.58,-198.199
99.6,-198.149
99.62,-198.099
99.64,-198.049
99.66,-197.999
99.68,-197.949
99.7,-197.899
99.72,-197.849
99.74,-197.799
99.76,-197.749
99.78,-197.7
99.8,-197.65
99.82,-197.6
99.84,-197.551
99.86,-197.501
99.88,-197.451
99.9,-197.402
99.92,-197.352
99.94,-197.303
99.96,-197.253
99.98,-197.204
100,-197.154
100.02,-197.105
100.04,-197.055
100.06,-197.006
100.08,-196.956
100.1,-196.907
100.12,-196.858
100.14,-196.809
100.16,-196.759
100.18,-196.71
100.2,-196.661
100.22,-196.612
100.24,-196.562
100.26,-196.513
100.28,-196.464
100.3,-196.415
100.32,-196.366
100.34,-196.317
100.36,-196.268
100.38,-196.219
100.4,-196.17
100.42,-196.121
100.44,-196.072
100.46,-196.023
100.48,-195.975
100.5,-195.926
100.52,-195.877
100.54,-195.828
100.56,-195.779
100.58,-195.731
100.6,-195.682
100.62,-195.633
100.64,-195.585
100.66,-195.536
100.68,-195.488
100.7,-195.439
100.72,-195.39
100.74,-195.342
100.76,-195.293
100.78,-195.245
100.8,-195.197
100.82,-195.148
100.84,-195.1
100.86,-195.051
100.88,-195.003
100.9,-194.955
100.92,-194.906
100.94,-194.858
100.96,-194.81
100.98,-194.762
101,-194.714
101.02,-194.665
101.04,-194.617
101.06,-194.569
101.08,-194.521
101.1,-194.473
101.12,-194.425
101.14,-194.377
101.16,-194.329
101.18,-194.281
101.2,-194.233
101.22,-194.185
101.24,-194.137
101.26,-194.089
101.28,-194.042
101.3,-193.994
101.32,-193.946
101.34,-193.898
101.36,-193.851
101.38,-193.803
101.4,-193.755
101.42,-193.708
101.44,-193.66
101.46,-193.612
101.48,-193.565
101.5,-193.517
101.52,-193.47
101.54,-193.422
101.56,-193.375
101.58,-193.327
101.6,-193.28
101.62,-193.232
101.64,-193.185
101.66,-193.138
101.68,-193.09
101.7,-193.043
101.72,-192.996
101.74,-192.949
101.76,-192.901
101.78,-192.854
101.8,-192.807
101.82,-192.76
101.84,-192.713
101.86,-192.666
101.88,-192.619
101.9,-192.571
101.92,-192.524
101.94,-192.477
101.96,-192.43
101.98,-192.384
102,-192.337
102.02,-192.29
102.04,-192.243
102.06,-192.196
102.08,-192.149
102.1,-192.102
102.12,-192.056
102.14,-192.009
102.16,-191.962
102.18,-191.915
102.2,-191.869
102.22,-191.822
102.24,-191.775
102.26,-191.729
102.28,-191.682
102.3,-191.636
102.32,-191.589
102.34,-191.543
102.36,-191.496
102.38,-191.45
102.4,-191.403
102.42,-191.357
102.44,-191.311
102.46,-191.264
102.48,-191.218
102.5,-191.172
102.52,-191.125
102.54,-191.079
102.56,-191.033
102.58,-190.987
102.6,-190.94
102.62,-190.894
102.64,-190.848
102.66,-190.802
102.68,-190.756
102.7,-190.71
102.72,-190.664
102.74,-190.618
102.76,-190.572
102.78,-190.526
102.8,-190.48
102.82,-190.434
102.84,-190.388
102.86,-190.342
102.88,-190.296
102.9,-190.25
102.92,-190.205
102.94,-190.159
102.96,-190.113
102.98,-190.067
103,-190.022
103.02,-189.976
103.04,-189.93
103.06,-189.885
103.08,-189.839
103.1,-189.794
103.12,-189.748
103.14,-189.702
103.16,-189.657
103.18,-189.611
103.2,-189.566
103.22,-189.521
103.24,-189.475
103.26,-189.43
103.28,-189.384
103.3,-189.339
103.32,-189.294
103.34,-189.248
103.36,-189.203
103.38,-189.158
103.4,-189.113
103.42,-189.068
103.44,-189.022
103.46,-188.977
103.48,-188.932
103.5,-188.887
103.52,-188.842
103.54,-188.797
103.56,-188.752
103.58,-188.707
103.6,-188.662
103.62,-188.617
103.64,-188.572
103.66,-188.527
103.68,-188.482
103.7,-188.437
103.72,-188.392
103.74,-188.348
103.76,-188.303
103.78,-188.258
103.8,-188.213
103.82,-188.169
103.84,-188.124
103.86,-188.079
103.88,-188.035
103.9,-187.99
103.92,-187.945
103.94,-187.901
103.96,-187.856
103.98,-187.812
104,-187.767
104.02,-187.723
104.04,-187.678
104.06,-187.634
104.08,-187.589
104.1,-187.545
104.12,-187.501
104.14,-187.456
104.16,-187.412
104.18,-187.368
104.2,-187.323
104.22,-187.279
104.24,-187.235
104.26,-187.191
104.28,-187.146
104.3,-187.102
104.32,-187.058
104.34,-187.014
104.36,-186.97
104.38,-186.926
104.4,-186.882
104.42,-186.838
104.44,-186.794
104.46,-186.75
104.48,-186.706
104.5,-186.662
104.52,-186.618
104.54,-186.574
104.56,-186.53
104.58,-186.486
104.6,-186.443
104.62,-186.399
104.64,-186.355
104.66,-186.311
104.68,-186.268
104.7,-186.224
104.72,-186.18
104.74,-186.137
104.76,-186.093
104.78,-186.049
104.8,-186.006
104.82,-185.962
104.84,-185.919
104.86,-185.875
104.88,-185.832
104.9,-185.788
104.92,-185.745
104.94,-185.701
104.96,-185.658
104.98,-185.614
105,-185.571
105.02,-185.528
105.04,-185.484
105.06,-185.441
105.08,-185.398
105.1,-185.355
105.12,-185.311
105.14,-185.268
105.16,-185.225
105.18,-185.182
105.2,-185.139
105.22,-185.096
105.24,-185.053
105.26,-185.01
105.28,-184.967
105.3,-184.924
105.32,-184.881
105.34,-184.838
105.36,-184.795
105.38,-184.752
105.4,-184.709
105.42,-184.666
105.44,-184.623
105.46,-184.58
105.48,-184.537
105.5,-184.495
105.52,-184.452
105.54,-184.409
105.56,-184.366
105.58,-184.324
105.6,-184.281
105.62,-184.238
105.64,-184.196
105.66,-184.153
105.68,-184.11
105.7,-184.068
105.72,-184.025
105.74,-183.983
105.76,-183.94
105.78,-183.898
105.8,-183.855
105.82,-183.813
105.84,-183.771
105.86,-183.728
105.88,-183.686
105.9,-183.643
105.92,-183.601
105.94,-183.559
105.96,-183.517
105.98,-183.474
106,-183.432
106.02,-183.39
106.04,-183.348
106.06,-183.305
106.08,-183.263
106.1,-183.221
106.12,-183.179
106.14,-183.137
106.16,-183.095
106.18,-183.053
106.2,-183.011
106.22,-182.969
106.24,-182.927
106.26,-182.885
106.28,-182.843
106.3,-182.801
106.32,-182.759
106.34,-182.717
106.36,-182.676
106.38,-182.634
106.4,-182.592
106.42,-182.55
106.44,-182.508
106.46,-182.467
106.48,-182.425
106.5,-182.383
106.52,-182.342
106.54,-182.3
106.56,-182.258
106.58,-182.217
106.6,-182.175
106.62,-182.134
106.64,-182.092
106.66,-182.051
106.68,-182.009
106.7,-181.968
106.72,-181.926
106.74,-181.885
106.76,-181.843
106.78,-181.802
106.8,-181.76
106.82,-181.719
106.84,-181.678
106.86,-181.637
106.88,-181.595
106.9,-181.554
106.92,-181.513
106.94,-181.472
106.96,-181.43
106.98,-181.389
107,-181.348
107.02,-181.307
107.04,-181.266
107.06,-181.225
107.08,-181.184
107.1,-181.143
107.12,-181.102
107.14,-181.061
107.16,-181.02
107.18,-180.979
107.2,-180.938
107.22,-180.897
107.24,-180.856
107.26,-180.815
107.28,-180.774
107.3,-180.733
107.32,-180.693
107.34,-180.652
107.36,-180.611
107.38,-180.57
107.4,-180.529
107.42,-180.489
107.44,-180.448
107.46,-180.407
107.48,-180.367
107.5,-180.326
107.52,-180.286
107.54,-180.245
107.56,-180.204
107.58,-180.164
107.6,-180.123
107.62,-180.083
107.64,-180.042
107.66,-180.002
107.68,-179.962
107.7,-179.921
107.72,-179.881
107.74,-179.84
107.76,-179.8
107.78,-179.76
107.8,-179.719
107.82,-179.679
107.84,-179.639
107.86,-179.599
107.88,-179.558
107.9,-179.518
107.92,-179.478
107.94,-179.438
107.96,-179.398
107.98,-179.358
108,-179.317
108.02,-179.277
108.04,-179.237
108.06,-179.197
108.08,-179.157
108.1,-179.117
108.12,-179.077
108.14,-179.037
108.16,-178.997
108.18,-178.957
108.2,-178.918
108.22,-178.878
108.24,-178.838
108.26,-178.798
108.28,-178.758
108.3,-178.718
108.32,-178.679
108.34,-178.639
108.36,-178.599
108.38,-178.559
108.4,-178.52
108.42,-178.48
108.44,-178.44
108.46,-178.401
108.48,-178.361
108.5,-178.322
108.52,-178.282
108.54,-178.243
108.56,-178.203
108.58,-178.164
108.6,-178.124
108.62,-178.085
108.64,-178.045
108.66,-178.006
108.68,-177.966
108.7,-177.927
108.72,-177.888
108.74,-177.848
108.76,-177.809
108.78,-177.77
108.8,-177.73
108.82,-177.691
108.84,-177.652
108.86,-177.613
108.88,-177.573
108.9,-177.534
108.92,-177.495
108.94,-177.456
108.96,-177.417
108.98,-177.378
109,-177.339
109.02,-177.299
109.04,-177.26
109.06,-177.221
109.08,-177.182
109.1,-177.143
109.12,-177.104
109.14,-177.066
109.16,-177.027
109.18,-176.988
109.2,-176.949
109.22,-176.91
109.24,-176.871
109.26,-176.832
109.28,-176.794
109.3,-176.755
109.32,-176.716
109.34,-176.677
109.36,-176.638
109.38,-176.6
109.4,-176.561
109.42,-176.522
109.44,-176.484
109.46,-176.445
109.48,-176.407
109.5,-176.368
109.52,-176.329
109.54,-176.291
109.56,-176.252
109.58,-176.214
109.6,-176.175
109.62,-176.137
109.64,-176.098
109.66,-176.06
109.68,-176.022
109.7,-175.983
109.72,-175.945
109.74,-175.906
109.76,-175.868
109.78,-175.83
109.8,-175.792
109.82,-175.753
109.84,-175.715
109.86,-175.677
109.88,-175.639
109.9,-175.6
109.92,-175.562
109.94,-175.524
109.96,-175.486
109.98,-175.448
110,-175.41
110.02,-175.372
110.04,-175.334
110.06,-175.295
110.08,-175.257
110.1,-175.219
110.12,-175.181
110.14,-175.144
110.16,-175.106
110.18,-175.068
110.2,-175.03
110.22,-174.992
110.24,-174.954
110.26,-174.916
110.28,-174.878
110.3,-174.841
110.32,-174.803
110.34,-174.765
110.36,-174.727
110.38,-174.689
110.4,-174.652
110.42,-174.614
110.44,-174.576
110.46,-174.539
110.48,-174.501
110.5,-174.463
110.52,-174.426
110.54,-174.388
110.56,-174.351
110.58,-174.313
110.6,-174.276
110.62,-174.238
110.64,-174.201
110.66,-174.163
110.68,-174.126
110.7,-174.088
110.72,-174.051
110.74,-174.014
110.76,-173.976
110.78,-173.939
110.8,-173.901
110.82,-173.864
110.84,-173.827
110.86,-173.79
110.88,-173.752
110.9,-173.715
110.92,-173.678
110.94,-173.641
110.96,-173.603
110.98,-173.566
111,-173.529
111.02,-173.492
111.04,-173.455
111.06,-173.418
111.08,-173.381
111.1,-173.344
111.12,-173.307
111.14,-173.27
111.16,-173.233
111.18,-173.196
111.2,-173.159
111.22,-173.122
111.24,-173.085
111.26,-173.048
111.28,-173.011
111.3,-172.974
111.32,-172.937
111.34,-172.9
111.36,-172.864
111.38,-172.827
111.4,-172.79
111.42,-172.753
111.44,-172.717
111.46,-172.68
111.48,-172.643
111.5,-172.606
111.52,-172.57
111.54,-172.533
111.56,-172.497
111.58,-172.46
111.6,-172.423
111.62,-172.387
111.64,-172.35
111.66,-172.314
111.68,-172.277
111.7,-172.241
111.72,-172.204
111.74,-172.168
111.76,-172.131
111.78,-172.095
111.8,-172.058
111.82,-172.022
111.84,-171.986
111.86,-171.949
111.88,-171.913
111.9,-171.877
111.92,-171.84
111.94,-171.804
111.96,-171.768
111.98,-171.732
112,-171.695
112.02,-171.659
112.04,-171.623
112.06,-171.587
112.08,-171.551
112.1,-171.514
112.12,-171.478
112.14,-171.442
112.16,-171.406
112.18,-171.37
112.2,-171.334
112.22,-171.298
112.24,-171.262
112.26,-171.226
112.28,-171.19
112.3,-171.154
112.32,-171.118
112.34,-171.082
112.36,-171.046
112.38,-171.01
112.4,-170.974
112.42,-170.939
112.44,-170.903
112.46,-170.867
112.48,-170.831
112.5,-170.795
112.52,-170.76
112.54,-170.724
112.56,-170.688
112.58,-170.652
112.6,-170.617
112.62,-170.581
112.64,-170.545
112.66,-170.51
112.68,-170.474
112.7,-170.439
112.72,-170.403
112.74,-170.367
112.76,-170.332
112.78,-170.296
112.8,-170.261
112.82,-170.225
112.84,-170.19
112.86,-170.154
112.88,-170.119
112.9,-170.083
112.92,-170.048
112.94,-170.013
112.96,-169.977
112.98,-169.942
113,-169.907
113.02,-169.871
113.04,-169.836
113.06,-169.801
113.08,-169.765
113.1,-169.73
113.12,-169.695
113.14,-169.66
113.16,-169.624
113.18,-169.589
113.2,-169.554
113.22,-169.519
113.24,-169.484
113.26,-169.449
113.28,-169.414
113.3,-169.379
113.32,-169.343
113.34,-169.308
113.36,-169.273
113.38,-169.238
113.4,-169.203
113.42,-169.168
113.44,-169.133
113.46,-169.099
113.48,-169.064
113.5,-169.029
113.52,-168.994
113.54,-168.959
113.56,-168.924
113.58,-168.889
113.6,-168.854
113.62,-168.82
113.64,-168.785
113.66,-168.75
113.68,-168.715
113.7,-168.68
113.72,-168.646
113.74,-168.611
113.76,-168.576
113.78,-168.542
113.8,-168.507
113.82,-168.472
113.84,-168.438
113.86,-168.403
113.88,-168.369
113.9,-168.334
113.92,-168.299
113.94,-168.265
113.96,-168.23
113.98,-168.196
114,-168.161
114.02,-168.127
114.04,-168.093
114.06,-168.058
114.08,-168.024
114.1,-167.989
114.12,-167.955
114.14,-167.92
114.16,-167.886
114.18,-167.852
114.2,-167.817
114.22,-167.783
114.24,-167.749
114.26,-167.715
114.28,-167.68
114.3,-167.646
114.32,-167.612
114.34,-167.578
114.36,-167.544
114.38,-167.509
114.4,-167.475
114.42,-167.441
114.44,-167.407
114.46,-167.373
114.48,-167.339
114.5,-167.305
114.52,-167.271
114.54,-167.237
114.56,-167.203
114.58,-167.169
114.6,-167.135
114.62,-167.101
114.64,-167.067
114.66,-167.033
114.68,-166.999
114.7,-166.965
114.72,-166.931
114.74,-166.897
114.76,-166.863
114.78,-166.829
114.8,-166.796
114.82,-166.762
114.84,-166.728
114.86,-166.694
114.88,-166.661
114.9,-166.627
114.92,-166.593
114.94,-166.559
114.96,-166.526
114.98,-166.492
115,-166.458
115.02,-166.425
115.04,-166.391
115.06,-166.357
115.08,-166.324
115.1,-166.29
115.12,-166.257
115.14,-166.223
115.16,-166.19
115.18,-166.156
115.2,-166.123
115.22,-166.089
115.24,-166.056
115.26,-166.022
115.28,-165.989
115.3,-165.955
115.32,-165.922
115.34,-165.889
115.36,-165.855
115.38,-165.822
115.4,-165.789
115.42,-165.755
115.44,-165.722
115.46,-165.689
115.48,-165.655
115.5,-165.622
115.52,-165.589
115.54,-165.556
115.56,-165.522
115.58,-165.489
115.6,-165.456
115.62,-165.423
115.64,-165.39
115.66,-165.357
115.68,-165.323
115.7,-165.29
115.72,-165.257
115.74,-165.224
115.76,-165.191
115.78,-165.158
115.8,-165.125
115.82,-165.092
115.84,-165.059
115.86,-165.026
115.88,-164.993
115.9,-164.96
115.92,-164.927
115.94,-164.894
115.96,-164.862
115.98,-164.829
116,-164.796
116.02,-164.763
116.04,-164.73
116.06,-164.697
116.08,-164.664
116.1,-164.632
116.12,-164.599
116.14,-164.566
116.16,-164.533
116.18,-164.501
116.2,-164.468
116.22,-164.435
116.24,-164.403
116.26,-164.37
116.28,-164.337
116.3,-164.305
116.32,-164.272
116.34,-164.239
116.36,-164.207
116.38,-164.174
116.4,-164.142
116.42,-164.109
116.44,-164.077
116.46,-164.044
116.48,-164.012
116.5,-163.979
116.52,-163.947
116.54,-163.914
116.56,-163.882
116.58,-163.85
116.6,-163.817
116.62,-163.785
116.64,-163.752
116.66,-163.72
116.68,-163.688
116.7,-163.655
116.72,-163.623
116.74,-163.591
116.76,-163.558
116.78,-163.526
116.8,-163.494
116.82,-163.462
116.84,-163.43
116.86,-163.397
116.88,-163.365
116.9,-163.333
116.92,-163.301
116.94,-163.269
116.96,-163.237
116.98,-163.204
117,-163.172
117.02,-163.14
117.04,-163.108
117.06,-163.076
117.08,-163.044
117.1,-163.012
117.12,-162.98
117.14,-162.948
117.16,-162.916
117.18,-162.884
117.2,-162.852
117.22,-162.82
117.24,-162.788
117.26,-162.757
117.28,-162.725
117.3,-162.693
117.32,-162.661
117.34,-162.629
117.36,-162.597
117.38,-162.565
117.4,-162.534
117.42,-162.502
117.44,-162.47
117.46,-162.438
117.48,-162.407
117.5,-162.375
117.52,-162.343
117.54,-162.312
117.56,-162.28
117.58,-162.248
117.6,-162.217
117.62,-162.185
117.64,-162.153
117.66,-162.122
117.68,-162.09
117.7,-162.059
117.72,-162.027
117.74,-161.995
117.76,-161.964
117.78,-161.932
117.8,-161.901
117.82,-161.869
117.84,-161.838
117.86,-161.806
117.88,-161.775
117.9,-161.744
117.92,-161.712
117.94,-161.681
117.96,-161.649
117.98,-161.618
118,-161.587
118.02,-161.555
118.04,-161.524
118.06,-161.493
118.08,-161.461
118.1,-161.43
118.12,-161.399
118.14,-161.368
118.16,-161.336
118.18,-161.305
118.2,-161.274
118.22,-161.243
118.24,-161.212
118.26,-161.18
118.28,-161.149
118.3,-161.118
118.32,-161.087
118.34,-161.056
118.36,-161.025
118.38,-160.994
118.4,-160.963
118.42,-160.932
118.44,-160.901
118.46,-160.87
118.48,-160.839
118.5,-160.808
118.52,-160.777
118.54,-160.746
118.56,-160.715
118.58,-160.684
118.6,-160.653
118.62,-160.622
118.64,-160.591
118.66,-160.56
118.68,-160.529
118.7,-160.499
118.72,-160.468
118.74,-160.437
118.76,-160.406
118.78,-160.375
118.8,-160.345
118.82,-160.314
118.84,-160.283
118.86,-160.252
118.88,-160.222
118.9,-160.191
118.92,-160.16
118.94,-160.129
118.96,-160.099
118.98,-160.068
119,-160.038
119.02,-160.007
119.04,-159.976
119.06,-159.946
119.08,-159.915
119.1,-159.885
119.12,-159.854
119.14,-159.823
119.16,-159.793
119.18,-159.762
119.2,-159.732
119.22,-159.701
119.24,-159.671
119.26,-159.641
119.28,-159.61
119.3,-159.58
119.32,-159.549
119.34,-159.519
119.36,-159.488
119.38,-159.458
119.4,-159.428
119.42,-159.397
119.44,-159.367
119.46,-159.337
119.48,-159.306
119.5,-159.276
119.52,-159.246
119.54,-159.216
119.56,-159.185
119.58,-159.155
119.6,-159.125
119.62,-159.095
119.64,-159.065
119.66,-159.034
119.68,-159.004
119.7,-158.974
119.72,-158.944
119.74,-158.914
119.76,-158.884
119.78,-158.854
119.8,-158.824
119.82,-158.793
119.84,-158.763
119.86,-158.733
119.88,-158.703
119.9,-158.673
119.92,-158.643
119.94,-158.613
119.96,-158.583
119.98,-158.553
120,-158.523
120.02,-158.494
120.04,-158.464
120.06,-158.434
120.08,-158.404
120.1,-158.374
120.12,-158.344
120.14,-158.314
120.16,-158.284
120.18,-158.255
120.2,-158.225
120.22,-158.195
120.24,-158.165
120.26,-158.135
120.28,-158.106
120.3,-158.076
120.32,-158.046
120.34,-158.016
120.36,-157.987
120.38,-157.957
120.4,-157.927
120.42,-157.898
120.44,-157.868
120.46,-157.838
120.48,-157.809
120.5,-157.779
120.52,-157.75
120.54,-157.72
120.56,-157.69
120.58,-157.661
120.6,-157.631
120.62,-157.602
120.64,-157.572
120.66,-157.543
120.68,-157.513
120.7,-157.484
120.72,-157.454
120.74,-157.425
120.76,-157.396
120.78,-157.366
120.8,-157.337
120.82,-157.307
120.84,-157.278
120.86,-157.249
120.88,-157.219
120.9,-157.19
120.92,-157.16
120.94,-157.131
120.96,-157.102
120.98,-157.073
121,-157.043
121.02,-157.014
121.04,-156.985
121.06,-156.956
121.08,-156.926
121.1,-156.897
121.12,-156.868
121.14,-156.839
121.16,-156.81
121.18,-156.78
121.2,-156.751
121.22,-156.722
121.24,-156.693
121.26,-156.664
121.28,-156.635
121.3,-156.606
121.32,-156.577
121.34,-156.548
121.36,-156.519
121.38,-156.489
121.4,-156.46
121.42,-156.431
121.44,-156.402
121.46,-156.373
121.48,-156.345
121.5,-156.316
121.52,-156.287
121.54,-156.258
121.56,-156.229
121.58,-156.2
121.6,-156.171
121.62,-156.142
121.64,-156.113
121.66,-156.084
121.68,-156.056
121.7,-156.027
121.72,-155.998
121.74,-155.969
121.76,-155.94
121.78,-155.912
121.8,-155.883
121.82,-155.854
121.84,-155.825
121.86,-155.797
121.88,-155.768
121.9,-155.739
121.92,-155.71
121.94,-155.682
121.96,-155.653
121.98,-155.624
122,-155.596
122.02,-155.567
122.04,-155.539
122.06,-155.51
122.08,-155.481
122.1,-155.453
122.12,-155.424
122.14,-155.396
122.16,-155.367
122.18,-155.339
122.2,-155.31
122.22,-155.282
122.24,-155.253
122.26,-155.225
122.28,-155.196
122.3,-155.168
122.32,-155.139
122.34,-155.111
122.36,-155.083
122.38,-155.054
122.4,-155.026
122.42,-154.997
122.44,-154.969
122.46,-154.941
122.48,-154.912
122.5,-154.884
122.52,-154.856
122.54,-154.827
122.56,-154.799
122.58,-154.771
122.6,-154.743
122.62,-154.714
122.64,-154.686
122.66,-154.658
122.68,-154.63
122.7,-154.601
122.72,-154.573
122.74,-154.545
122.76,-154.517
122.78,-154.489
122.8,-154.461
122.82,-154.433
122.84,-154.404
122.86,-154.376
122.88,-154.348
122.9,-154.32
122.92,-154.292
122.94,-154.264
122.96,-154.236
122.98,-154.208
123,-154.18
123.02,-154.152
123.04,-154.124
123.06,-154.096
123.08,-154.068
123.1,-154.04
123.12,-154.012
123.14,-153.984
123.16,-153.956
123.18,-153.928
123.2,-153.9
123.22,-153.873
123.24,-153.845
123.26,-153.817
123.28,-153.789
123.3,-153.761
123.32,-153.733
123.34,-153.706
123.36,-153.678
123.38,-153.65
123.4,-153.622
123.42,-153.594
123.44,-153.567
123.46,-153.539
123.48,-153.511
123.5,-153.484
123.52,-153.456
123.54,-153.428
123.56,-153.4
123.58,-153.373
123.6,-153.345
123.62,-153.317
123.64,-153.29
123.66,-153.262
123.68,-153.235
123.7,-153.207
123.72,-153.179
123.74,-153.152
123.76,-153.124
123.78,-153.097
123.8,-153.069
123.82,-153.042
123.84,-153.014
123.86,-152.987
123.88,-152.959
123.9,-152.932
123.92,-152.904
123.94,-152.877
123.96,-152.849
123.98,-152.822
124,-152.795
124.02,-152.767
124.04,-152.74
124.06,-152.712
124.08,-152.685
124.1,-152.658
124.12,-152.63
124.14,-152.603
124.16,-152.576
124.18,-152.548
124.2,-152.521
124.22,-152.494
124.24,-152.466
124.26,-152.439
124.28,-152.412
124.3,-152.385
124.32,-152.357
124.34,-152.33
124.36,-152.303
124.38,-152.276
124.4,-152.249
124.42,-152.221
124.44,-152.194
124.46,-152.167
124.48,-152.14
124.5,-152.113
124.52,-152.086
124.54,-152.059
124.56,-152.032
124.58,-152.005
124.6,-151.977
124.62,-151.95
124.64,-151.923
124.66,-151.896
124.68,-151.869
124.7,-151.842
124.72,-151.815
124.74,-151.788
124.76,-151.761
124.78,-151.734
124.8,-151.707
124.82,-151.68
124.84,-151.654
124.86,-151.627
124.88,-151.6
124.9,-151.573
124.92,-151.546
124.94,-151.519
124.96,-151.492
124.98,-151.465
125,-151.439
125.02,-151.412
125.04,-151.385
125.06,-151.358
125.08,-151.331
125.1,-151.304
125.12,-151.278
125.14,-151.251
125.16,-151.224
125.18,-151.197
125.2,-151.171
125.22,-151.144
125.24,-151.117
125.26,-151.091
125.28,-151.064
125.3,-151.037
125.32,-151.011
125.34,-150.984
125.36,-150.957
125.38,-150.931
125.4,-150.904
125.42,-150.878
125.44,-150.851
125.46,-150.824
125.48,-150.798
125.5,-150.771
125.52,-150.745
125.54,-150.718
125.56,-150.692
125.58,-150.665
125.6,-150.639
125.62,-150.612
125.64,-150.586
125.66,-150.559
125.68,-150.533
125.7,-150.506
125.72,-150.48
125.74,-150.453
125.76,-150.427
125.78,-150.401
125.8,-150.374
125.82,-150.348
125.84,-150.321
125.86,-150.295
125.88,-150.269
125.9,-150.242
125.92,-150.216
125.94,-150.19
125.96,-150.163
125.98,-150.137
126,-150.111
126.02,-150.085
126.04,-150.058
126.06,-150.032
126.08,-150.006
126.1,-149.98
126.12,-149.953
126.14,-149.927
126.16,-149.901
126.18,-149.875
126.2,-149.849
126.22,-149.822
126.24,-149.796
126.26,-149.77
126.28,-149.744
126.3,-149.718
126.32,-149.692
126.34,-149.666
126.36,-149.64
126.38,-149.614
126.4,-149.588
126.42,-149.561
126.44,-149.535
126.46,-149.509
126.48,-149.483
126.5,-149.457
126.52,-149.431
126.54,-149.405
126.56,-149.379
126.58,-149.353
126.6,-149.328
126.62,-149.302
126.64,-149.276
126.66,-149.25
126.68,-149.224
126.7,-149.198
126.72,-149.172
126.74,-149.146
126.76,-149.12
126.78,-149.094
126.8,-149.069
126.82,-149.043
126.84,-149.017
126.86,-148.991
126.88,-148.965
126.9,-148.939
126.92,-148.914
126.94,-148.888
126.96,-148.862
126.98,-148.836
127,-148.811
127.02,-148.785
127.04,-148.759
127.06,-148.733
127.08,-148.708
127.1,-148.682
127.12,-148.656
127.14,-148.631
127.16,-148.605
127.18,-148.579
127.2,-148.554
127.22,-148.528
127.24,-148.503
127.26,-148.477
127.28,-148.451
127.3,-148.426
127.32,-148.4
127.34,-148.375
127.36,-148.349
127.38,-148.324
127.4,-148.298
127.42,-148.272
127.44,-148.247
127.46,-148.221
127.48,-148.196
127.5,-148.171
127.52,-148.145
127.54,-148.12
127.56,-148.094
127.58,-148.069
127.6,-148.043
127.62,-148.018
127.64,-147.992
127.66,-147.967
127.68,-147.942
127.7,-147.916
127.72,-147.891
127.74,-147.866
127.76,-147.84
127.78,-147.815
127.8,-147.79
127.82,-147.764
127.84,-147.739
127.86,-147.714
127.88,-147.688
127.9,-147.663
127.92,-147.638
127.94,-147.613
127.96,-147.587
127.98,-147.562
128,-147.537
128.02,-147.512
128.04,-147.486
128.06,-147.461
128.08,-147.436
128.1,-147.411
128.12,-147.386
128.14,-147.361
128.16,-147.335
128.18,-147.31
128.2,-147.285
128.22,-147.26
128.24,-147.235
128.26,-147.21
128.28,-147.185
128.3,-147.16
128.32,-147.135
128.34,-147.11
128.36,-147.085
128.38,-147.06
128.4,-147.035
128.42,-147.01
128.44,-146.985
128.46,-146.96
128.48,-146.935
128.5,-146.91
128.52,-146.885
128.54,-146.86
128.56,-146.835
128.58,-146.81
128.6,-146.785
128.62,-146.76
128.64,-146.735
128.66,-146.71
128.68,-146.685
128.7,-146.661
128.72,-146.636
128.74,-146.611
128.76,-146.586
128.78,-146.561
128.8,-146.536
128.82,-146.512
128.84,-146.487
128.86,-146.462
128.88,-146.437
128.9,-146.412
128.92,-146.388
128.94,-146.363
128.96,-146.338
128.98,-146.313
129,-146.289
129.02,-146.264
129.04,-146.239
129.06,-146.215
129.08,-146.19
129.1,-146.165
129.12,-146.141
129.14,-146.116
129.16,-146.091
129.18,-146.067
129.2,-146.042
129.22,-146.017
129.24,-145.993
129.26,-145.968
129.28,-145.944
129.3,-145.919
129.32,-145.895
129.34,-145.87
129.36,-145.845
129.38,-145.821
129.4,-145.796
129.42,-145.772
129.44,-145.747
129.46,-145.723
129.48,-145.698
129.5,-145.674
129.52,-145.649
129.54,-145.625
129.56,-145.601
129.58,-145.576
129.6,-145.552
129.62,-145.527
129.64,-145.503
129.66,-145.479
129.68,-145.454
129.7,-145.43
129.72,-145.405
129.74,-145.381
129.76,-145.357
129.78,-145.332
129.8,-145.308
129.82,-145.284
129.84,-145.259
129.86,-145.235
129.88,-145.211
129.9,-145.187
129.92,-145.162
129.94,-145.138
129.96,-145.114
129.98,-145.089
130,-145.065
130.02,-145.041
130.04,-145.017
130.06,-144.993
130.08,-144.968
130.1,-144.944
130.12,-144.92
130.14,-144.896
130.16,-144.872
130.18,-144.848
130.2,-144.823
130.22,-144.799
130.24,-144.775
130.26,-144.751
130.28,-144.727
130.3,-144.703
130.32,-144.679
130.34,-144.655
130.36,-144.631
130.38,-144.607
130.4,-144.583
130.42,-144.559
130.44,-144.535
130.46,-144.511
130.48,-144.487
130.5,-144.463
130.52,-144.439
130.54,-144.415
130.56,-144.391
130.58,-144.367
130.6,-144.343
130.62,-144.319
130.64,-144.295
130.66,-144.271
130.68,-144.247
130.7,-144.223
130.72,-144.199
130.74,-144.175
130.76,-144.151
130.78,-144.128
130.8,-144.104
130.82,-144.08
130.84,-144.056
130.86,-144.032
130.88,-144.008
130.9,-143.985
130.92,-143.961
130.94,-143.937
130.96,-143.913
130.98,-143.889
131,-143.866
131.02,-143.842
131.04,-143.818
131.06,-143.794
131.08,-143.771
131.1,-143.747
131.12,-143.723
131.14,-143.7
131.16,-143.676
131.18,-143.652
131.2,-143.629
131.22,-143.605
131.24,-143.581
131.26,-143.558
131.28,-143.534
131.3,-143.51
131.32,-143.487
131.34,-143.463
131.36,-143.44
131.38,-143.416
131.4,-143.392
131.42,-143.369
131.44,-143.345
131.46,-143.322
131.48,-143.298
131.5,-143.275
131.52,-143.251
131.54,-143.228
131.56,-143.204
131.58,-143.181
131.6,-143.157
131.62,-143.134
131.64,-143.11
131.66,-143.087
131.68,-143.063
131.7,-143.04
131.72,-143.016
131.74,-142.993
131.76,-142.97
131.78,-142.946
131.8,-142.923
131.82,-142.899
131.84,-142.876
131.86,-142.853
131.88,-142.829
131.9,-142.806
131.92,-142.783
131.94,-142.759
131.96,-142.736
131.98,-142.713
132,-142.689
132.02,-142.666
132.04,-142.643
132.06,-142.619
132.08,-142.596
132.1,-142.573
132.12,-142.55
132.14,-142.526
132.16,-142.503
132.18,-142.48
132.2,-142.457
132.22,-142.433
132.24,-142.41
132.26,-142.387
132.28,-142.364
132.3,-142.341
132.32,-142.318
132.34,-142.294
132.36,-142.271
132.38,-142.248
132.4,-142.225
132.42,-142.202
132.44,-142.179
132.46,-142.156
132.48,-142.133
132.5,-142.109
132.52,-142.086
132.54,-142.063
132.56,-142.04
132.58,-142.017
132.6,-141.994
132.62,-141.971
132.64,-141.948
132.66,-141.925
132.68,-141.902
132.7,-141.879
132.72,-141.856
132.74,-141.833
132.76,-141.81
132.78,-141.787
132.8,-141.764
132.82,-141.741
132.84,-141.718
132.86,-141.695
132.88,-141.673
132.9,-141.65
132.92,-141.627
132.94,-141.604
132.96,-141.581
132.98,-141.558
133,-141.535
133.02,-141.512
133.04,-141.489
133.06,-141.467
133.08,-141.444
133.1,-141.421
133.12,-141.398
133.14,-141.375
133.16,-141.353
133.18,-141.33
133.2,-141.307
133.22,-141.284
133.24,-141.261
133.26,-141.239
133.28,-141.216
133.3,-141.193
133.32,-141.17
133.34,-141.148
133.36,-141.125
133.38,-141.102
133.4,-141.08
133.42,-141.057
133.44,-141.034
133.46,-141.012
133.48,-140.989
133.5,-140.966
133.52,-140.944
133.54,-140.921
133.56,-140.898
133.58,-140.876
133.6,-140.853
133.62,-140.831
133.64,-140.808
133.66,-140.785
133.68,-140.763
133.7,-140.74
133.72,-140.718
133.74,-140.695
133.76,-140.673
133.78,-140.65
133.8,-140.628
133.82,-140.605
133.84,-140.583
133.86,-140.56
133.88,-140.538
133.9,-140.515
133.92,-140.493
133.94,-140.47
133.96,-140.448
133.98,-140.425
134,-140.403
134.02,-140.38
134.04,-140.358
134.06,-140.335
134.08,-140.313
134.1,-140.291
134.12,-140.268
134.14,-140.246
134.16,-140.224
134.18,-140.201
134.2,-140.179
134.22,-140.156
134.24,-140.134
134.26,-140.112
134.28,-140.089
134.3,-140.067
134.32,-140.045
134.34,-140.023
134.36,-140
134.38,-139.978
134.4,-139.956
134.42,-139.933
134.44,-139.911
134.46,-139.889
134.48,-139.867
134.5,-139.844
134.52,-139.822
134.54,-139.8
134.56,-139.778
134.58,-139.756
134.6,-139.733
134.62,-139.711
134.64,-139.689
134.66,-139.667
134.68,-139.645
134.7,-139.623
134.72,-139.6
134.74,-139.578
134.76,-139.556
134.78,-139.534
134.8,-139.512
134.82,-139.49
134.84,-139.468
134.86,-139.446
134.88,-139.424
134.9,-139.402
134.92,-139.379
134.94,-139.357
134.96,-139.335
134.98,-139.313
135,-139.291
135.02,-139.269
135.04,-139.247
135.06,-139.225
135.08,-139.203
135.1,-139.181
135.12,-139.159
135.14,-139.137
135.16,-139.115
135.18,-139.093
135.2,-139.071
135.22,-139.05
135.24,-139.028
135.26,-139.006
135.28,-138.984
135.3,-138.962
135.32,-138.94
135.34,-138.918
135.36,-138.896
135.38,-138.874
135.4,-138.852
135.42,-138.831
135.44,-138.809
135.46,-138.787
135.48,-138.765
135.5,-138.743
135.52,-138.721
135.54,-138.7
135.56,-138.678
135.58,-138.656
135.6,-138.634
135.62,-138.612
135.64,-138.591
135.66,-138.569
135.68,-138.547
135.7,-138.525
135.72,-138.504
135.74,-138.482
135.76,-138.46
135.78,-138.438
135.8,-138.417
135.82,-138.395
135.84,-138.373
135.86,-138.352
135.88,-138.33
135.9,-138.308
135.92,-138.287
135.94,-138.265
135.96,-138.243
135.98,-138.222
136,-138.2
136.02,-138.179
136.04,-138.157
136.06,-138.135
136.08,-138.114
136.1,-138.092
136.12,-138.071
136.14,-138.049
136.16,-138.027
136.18,-138.006
136.2,-137.984
136.22,-137.963
136.24,-137.941
136.26,-137.92
136.28,-137.898
136.3,-137.877
136.32,-137.855
136.34,-137.834
136.36,-137.812
136.38,-137.791
136.4,-137.769
136.42,-137.748
136.44,-137.726
136.46,-137.705
136.48,-137.683
136.5,-137.662
136.52,-137.641
136.54,-137.619
136.56,-137.598
136.58,-137.576
136.6,-137.555
136.62,-137.534
136.64,-137.512
136.66,-137.491
136.68,-137.469
136.7,-137.448
136.72,-137.427
136.74,-137.405
136.76,-137.384
136.78,-137.363
136.8,-137.341
136.82,-137.32
136.84,-137.299
136.86,-137.277
136.88,-137.256
136.9,-137.235
136.92,-137.214
136.94,-137.192
136.96,-137.171
136.98,-137.15
137,-137.129
137.02,-137.107
137.04,-137.086
137.06,-137.065
137.08,-137.044
137.1,-137.023
137.12,-137.001
137.14,-136.98
137.16,-136.959
137.18,-136.938
137.2,-136.917
137.22,-136.895
137.24,-136.874
137.26,-136.853
137.28,-136.832
137.3,-136.811
137.32,-136.79
137.34,-136.769
137.36,-136.748
137.38,-136.726
137.4,-136.705
137.42,-136.684
137.44,-136.663
137.46,-136.642
137.48,-136.621
137.5,-136.6
137.52,-136.579
137.54,-136.558
137.56,-136.537
137.58,-136.516
137.6,-136.495
137.62,-136.474
137.64,-136.453
137.66,-136.432
137.68,-136.411
137.7,-136.39
137.72,-136.369
137.74,-136.348
137.76,-136.327
137.78,-136.306
137.8,-136.285
137.82,-136.264
137.84,-136.243
137.86,-136.222
137.88,-136.201
137.9,-136.181
137.92,-136.16
137.94,-136.139
137.96,-136.118
137.98,-136.097
138,-136.076
138.02,-136.055
138.04,-136.034
138.06,-136.014
138.08,-135.993
138.1,-135.972
138.12,-135.951
138.14,-135.93
138.16,-135.91
138.18,-135.889
138.2,-135.868
138.22,-135.847
138.24,-135.826
138.26,-135.806
138.28,-135.785
138.3,-135.764
138.32,-135.743
138.34,-135.723
138.36,-135.702
138.38,-135.681
138.4,-135.66
138.42,-135.64
138.44,-135.619
138.46,-135.598
138.48,-135.578
138.5,-135.557
138.52,-135.536
138.54,-135.516
138.56,-135.495
138.58,-135.474
138.6,-135.454
138.62,-135.433
138.64,-135.412
138.66,-135.392
138.68,-135.371
138.7,-135.351
138.72,-135.33
138.74,-135.309
138.76,-135.289
138.78,-135.268
138.8,-135.248
138.82,-135.227
138.84,-135.206
138.86,-135.186
138.88,-135.165
138.9,-135.145
138.92,-135.124
138.94,-135.104
138.96,-135.083
138.98,-135.063
139,-135.042
139.02,-135.022
139.04,-135.001
139.06,-134.981
139.08,-134.96
139.1,-134.94
139.12,-134.919
139.14,-134.899
139.16,-134.878
139.18,-134.858
139.2,-134.838
139.22,-134.817
139.24,-134.797
139.26,-134.776
139.28,-134.756
139.3,-134.736
139.32,-134.715
139.34,-134.695
139.36,-134.674
139.38,-134.654
139.4,-134.634
139.42,-134.613
139.44,-134.593
139.46,-134.573
139.48,-134.552
139.5,-134.532
139.52,-134.512
139.54,-134.491
139.56,-134.471
139.58,-134.451
139.6,-134.43
139.62,-134.41
139.64,-134.39
139.66,-134.37
139.68,-134.349
139.7,-134.329
139.72,-134.309
139.74,-134.289
139.76,-134.268
139.78,-134.248
139.8,-134.228
139.82,-134.208
139.84,-134.188
139.86,-134.167
139.88,-134.147
139.9,-134.127
139.92,-134.107
139.94,-134.087
139.96,-134.067
139.98,-134.046
140,-134.026
140.02,-134.006
140.04,-133.986
140.06,-133.966
140.08,-133.946
140.1,-133.926
140.12,-133.905
140.14,-133.885
140.16,-133.865
140.18,-133.845
140.2,-133.825
140.22,-133.805
140.24,-133.785
140.26,-133.765
140.28,-133.745
140.3,-133.725
140.32,-133.705
140.34,-133.685
140.36,-133.665
140.38,-133.645
140.4,-133.625
140.42,-133.605
140.44,-133.585
140.46,-133.565
140.48,-133.545
140.5,-133.525
140.52,-133.505
140.54,-133.485
140.56,-133.465
140.58,-133.445
140.6,-133.425
140.62,-133.405
140.64,-133.385
140.66,-133.365
140.68,-133.345
140.7,-133.325
140.72,-133.305
140.74,-133.286
140.76,-133.266
140.78,-133.246
140.8,-133.226
140.82,-133.206
140.84,-133.186
140.86,-133.166
140.88,-133.147
140.9,-133.127
140.92,-133.107
140.94,-133.087
140.96,-133.067
140.98,-133.047
141,-133.028
141.02,-133.008
141.04,-132.988
141.06,-132.968
141.08,-132.948
141.1,-132.929
141.12,-132.909
141.14,-132.889
141.16,-132.869
141.18,-132.85
141.2,-132.83
141.22,-132.81
141.24,-132.79
141.26,-132.771
141.28,-132.751
141.3,-132.731
141.32,-132.712
141.34,-132.692
141.36,-132.672
141.38,-132.653
141.4,-132.633
141.42,-132.613
141.44,-132.594
141.46,-132.574
141.48,-132.554
141.5,-132.535
141.52,-132.515
141.54,-132.495
141.56,-132.476
141.58,-132.456
141.6,-132.437
141.62,-132.417
141.64,-132.397
141.66,-132.378
141.68,-132.358
141.7,-132.339
141.72,-132.319
141.74,-132.299
141.76,-132.28
141.78,-132.26
141.8,-132.241
141.82,-132.221
141.84,-132.202
141.86,-132.182
141.88,-132.163
141.9,-132.143
141.92,-132.124
141.94,-132.104
141.96,-132.085
141.98,-132.065
142,-132.046
142.02,-132.026
142.04,-132.007
142.06,-131.987
142.08,-131.968
142.1,-131.949
142.12,-131.929
142.14,-131.91
142.16,-131.89
142.18,-131.871
142.2,-131.851
142.22,-131.832
142.24,-131.813
142.26,-131.793
142.28,-131.774
142.3,-131.755
142.32,-131.735
142.34,-131.716
142.36,-131.696
142.38,-131.677
142.4,-131.658
142.42,-131.638
142.44,-131.619
142.46,-131.6
142.48,-131.58
142.5,-131.561
142.52,-131.542
142.54,-131.523
142.56,-131.503
142.58,-131.484
142.6,-131.465
142.62,-131.445
142.64,-131.426
142.66,-131.407
142.68,-131.388
142.7,-131.368
142.72,-131.349
142.74,-131.33
142.76,-131.311
142.78,-131.291
142.8,-131.272
142.82,-131.253
142.84,-131.234
142.86,-131.215
142.88,-131.195
142.9,-131.176
142.92,-131.157
142.94,-131.138
142.96,-131.119
142.98,-131.1
143,-131.08
143.02,-131.061
143.04,-131.042
143.06,-131.023
143.08,-131.004
143.1,-130.985
143.12,-130.966
143.14,-130.947
143.16,-130.928
143.18,-130.908
143.2,-130.889
143.22,-130.87
143.24,-130.851
143.26,-130.832
143.28,-130.813
143.3,-130.794
143.32,-130.775
143.34,-130.756
143.36,-130.737
143.38,-130.718
143.4,-130.699
143.42,-130.68
143.44,-130.661
143.46,-130.642
143.48,-130.623
143.5,-130.604
143.52,-130.585
143.54,-130.566
143.56,-130.547
143.58,-130.528
143.6,-130.509
143.62,-130.49
143.64,-130.471
143.66,-130.452
143.68,-130.433
143.7,-130.414
143.72,-130.395
143.74,-130.376
143.76,-130.358
143.78,-130.339
143.8,-130.32
143.82,-130.301
143.84,-130.282
143.86,-130.263
143.88,-130.244
143.9,-130.225
143.92,-130.206
143.94,-130.188
143.96,-130.169
143.98,-130.15
144,-130.131
144.02,-130.112
144.04,-130.093
144.06,-130.075
144.08,-130.056
144.1,-130.037
144.12,-130.018
144.14,-129.999
144.16,-129.981
144.18,-129.962
144.2,-129.943
144.22,-129.924
144.24,-129.906
144.26,-129.887
144.28,-129.868
144.3,-129.849
144.32,-129.831
144.34,-129.812
144.36,-129.793
144.38,-129.774
144.4,-129.756
144.42,-129.737
144.44,-129.718
144.46,-129.7
144.48,-129.681
144.5,-129.662
144.52,-129.644
144.54,-129.625
144.56,-129.606
144.58,-129.588
144.6,-129.569
144.62,-129.55
144.64,-129.532
144.66,-129.513
144.68,-129.494
144.7,-129.476
144.72,-129.457
144.74,-129.439
144.76,-129.42
144.78,-129.401
144.8,-129.383
144.82,-129.364
144.84,-129.346
144.86,-129.327
144.88,-129.308
144.9,-129.29
144.92,-129.271
144.94,-129.253
144.96,-129.234
144.98,-129.216
145,-129.197
145.02,-129.179
145.04,-129.16
145.06,-129.142
145.08,-129.123
145.1,-129.105
145.12,-129.086
145.14,-129.068
145.16,-129.049
145.18,-129.031
145.2,-129.012
145.22,-128.994
145.24,-128.975
145.26,-128.957
145.28,-128.938
145.3,-128.92
145.32,-128.902
145.34,-128.883
145.36,-128.865
145.38,-128.846
145.4,-128.828
145.42,-128.809
145.44,-128.791
145.46,-128.773
145.48,-128.754
145.5,-128.736
145.52,-128.718
145.54,-128.699
145.56,-128.681
145.58,-128.662
145.6,-128.644
145.62,-128.626
145.64,-128.607
145.66,-128.589
145.68,-128.571
145.7,-128.552
145.72,-128.534
145.74,-128.516
145.76,-128.498
145.78,-128.479
145.8,-128.461
145.82,-128.443
145.84,-128.424
145.86,-128.406
145.88,-128.388
145.9,-128.37
145.92,-128.351
145.94,-128.333
145.96,-128.315
145.98,-128.297
146,-128.278
146.02,-128.26
146.04,-128.242
146.06,-128.224
146.08,-128.205
146.1,-128.187
146.12,-128.169
146.14,-128.151
146.16,-128.133
146.18,-128.115
146.2,-128.096
146.22,-128.078
146.24,-128.06
146.26,-128.042
146.28,-128.024
146.3,-128.006
146.32,-127.987
146.34,-127.969
146.36,-127.951
146.38,-127.933
146.4,-127.915
146.42,-127.897
146.44,-127.879
146.46,-127.861
146.48,-127.843
146.5,-127.824
146.52,-127.806
146.54,-127.788
146.56,-127.77
146.58,-127.752
146.6,-127.734
146.62,-127.716
146.64,-127.698
146.66,-127.68
146.68,-127.662
146.7,-127.644
146.72,-127.626
146.74,-127.608
146.76,-127.59
146.78,-127.572
146.8,-127.554
146.82,-127.536
146.84,-127.518
146.86,-127.5
146.88,-127.482
146.9,-127.464
146.92,-127.446
146.94,-127.428
146.96,-127.41
146.98,-127.392
147,-127.374
147.02,-127.356
147.04,-127.338
147.06,-127.32
147.08,-127.302
147.1,-127.285
147.12,-127.267
147.14,-127.249
147.16,-127.231
147.18,-127.213
147.2,-127.195
147.22,-127.177
147.24,-127.159
147.26,-127.141
147.28,-127.124
147.3,-127.106
147.32,-127.088
147.34,-127.07
147.36,-127.052
147.38,-127.034
147.4,-127.016
147.42,-126.999
147.44,-126.981
147.46,-126.963
147.48,-126.945
147.5,-126.927
147.52,-126.91
147.54,-126.892
147.56,-126.874
147.58,-126.856
147.6,-126.838
147.62,-126.821
147.64,-126.803
147.66,-126.785
147.68,-126.767
147.7,-126.75
147.72,-126.732
147.74,-126.714
147.76,-126.696
147.78,-126.679
147.8,-126.661
147.82,-126.643
147.84,-126.626
147.86,-126.608
147.88,-126.59
147.9,-126.573
147.92,-126.555
147.94,-126.537
147.96,-126.52
147.98,-126.502
148,-126.484
148.02,-126.467
148.04,-126.449
148.06,-126.431
148.08,-126.414
148.1,-126.396
148.12,-126.378
148.14,-126.361
148.16,-126.343
148.18,-126.325
148.2,-126.308
148.22,-126.29
148.24,-126.273
148.26,-126.255
148.28,-126.237
148.3,-126.22
148.32,-126.202
148.34,-126.185
148.36,-126.167
148.38,-126.15
148.4,-126.132
148.42,-126.115
148.44,-126.097
148.46,-126.079
148.48,-126.062
148.5,-126.044
148.52,-126.027
148.54,-126.009
148.56,-125.992
148.58,-125.974
148.6,-125.957
148.62,-125.939
148.64,-125.922
148.66,-125.904
148.68,-125.887
148.7,-125.869
148.72,-125.852
148.74,-125.835
148.76,-125.817
148.78,-125.8
148.8,-125.782
148.82,-125.765
148.84,-125.747
148.86,-125.73
148.88,-125.713
148.9,-125.695
148.92,-125.678
148.94,-125.66
148.96,-125.643
148.98,-125.625
149,-125.608
149.02,-125.591
149.04,-125.573
149.06,-125.556
149.08,-125.539
149.1,-125.521
149.12,-125.504
149.14,-125.487
149.16,-125.469
149.18,-125.452
149.2,-125.435
149.22,-125.417
149.24,-125.4
149.26,-125.383
149.28,-125.365
149.3,-125.348
149.32,-125.331
149.34,-125.313
149.36,-125.296
149.38,-125.279
149.4,-125.261
149.42,-125.244
149.44,-125.227
149.46,-125.21
149.48,-125.192
149.5,-125.175
149.52,-125.158
149.54,-125.141
149.56,-125.123
149.58,-125.106
149.6,-125.089
149.62,-125.072
149.64,-125.055
149.66,-125.037
149.68,-125.02
149.7,-125.003
149.72,-124.986
149.74,-124.969
149.76,-124.951
149.78,-124.934
149.8,-124.917
149.82,-124.9
149.84,-124.883
149.86,-124.865
149.88,-124.848
149.9,-124.831
149.92,-124.814
149.94,-124.797
149.96,-124.78
149.98,-124.763
150,-124.746
150.02,-124.728
150.04,-124.711
150.06,-124.694
150.08,-124.677
150.1,-124.66
150.12,-124.643
150.14,-124.626
150.16,-124.609
150.18,-124.592
150.2,-124.575
150.22,-124.558
150.24,-124.54
150.26,-124.523
150.28,-124.506
150.3,-124.489
150.32,-124.472
150.34,-124.455
150.36,-124.438
150.38,-124.421
150.4,-124.404
150.42,-124.387
150.44,-124.37
150.46,-124.353
150.48,-124.336
150.5,-124.319
150.52,-124.302
150.54,-124.285
150.56,-124.268
150.58,-124.251
150.6,-124.234
150.62,-124.217
150.64,-124.2
150.66,-124.183
150.68,-124.167
150.7,-124.15
150.72,-124.133
150.74,-124.116
150.76,-124.099
150.78,-124.082
150.8,-124.065
150.82,-124.048
150.84,-124.031
150.86,-124.014
150.88,-123.997
150.9,-123.98
150.92,-123.964
150.94,-123.947
150.96,-123.93
150.98,-123.913
151,-123.896
151.02,-123.879
151.04,-123.862
151.06,-123.846
151.08,-123.829
151.1,-123.812
151.12,-123.795
151.14,-123.778
151.16,-123.761
151.18,-123.745
151.2,-123.728
151.22,-123.711
151.24,-123.694
151.26,-123.677
151.28,-123.661
151.3,-123.644
151.32,-123.627
151.34,-123.61
151.36,-123.593
151.38,-123.577
151.4,-123.56
151.42,-123.543
151.44,-123.526
151.46,-123.51
151.48,-123.493
151.5,-123.476
151.52,-123.459
151.54,-123.443
151.56,-123.426
151.58,-123.409
151.6,-123.393
151.62,-123.376
151.64,-123.359
151.66,-123.343
151.68,-123.326
151.7,-123.309
151.72,-123.292
151.74,-123.276
151.76,-123.259
151.78,-123.242
151.8,-123.226
151.82,-123.209
151.84,-123.193
151.86,-123.176
151.88,-123.159
151.9,-123.143
151.92,-123.126
151.94,-123.109
151.96,-123.093
151.98,-123.076
152,-123.06
152.02,-123.043
152.04,-123.026
152.06,-123.01
152.08,-122.993
152.1,-122.977
152.12,-122.96
152.14,-122.943
152.16,-122.927
152.18,-122.91
152.2,-122.894
152.22,-122.877
152.24,-122.861
152.26,-122.844
152.28,-122.828
152.3,-122.811
152.32,-122.794
152.34,-122.778
152.36,-122.761
152.38,-122.745
152.4,-122.728
152.42,-122.712
152.44,-122.695
152.46,-122.679
152.48,-122.662
152.5,-122.646
152.52,-122.629
152.54,-122.613
152.56,-122.596
152.58,-122.58
152.6,-122.564
152.62,-122.547
152.64,-122.531
152.66,-122.514
152.68,-122.498
152.7,-122.481
152.72,-122.465
152.74,-122.448
152.76,-122.432
152.78,-122.416
152.8,-122.399
152.82,-122.383
152.84,-122.366
152.86,-122.35
152.88,-122.334
152.9,-122.317
152.92,-122.301
152.94,-122.284
152.96,-122.268
152.98,-122.252
153,-122.235
153.02,-122.219
153.04,-122.203
153.06,-122.186
153.08,-122.17
153.1,-122.154
153.12,-122.137
153.14,-122.121
153.16,-122.105
153.18,-122.088
153.2,-122.072
153.22,-122.056
153.24,-122.039
153.26,-122.023
153.28,-122.007
153.3,-121.991
153.32,-121.974
153.34,-121.958
153.36,-121.942
153.38,-121.925
153.4,-121.909
153.42,-121.893
153.44,-121.877
153.46,-121.86
153.48,-121.844
153.5,-121.828
153.52,-121.812
153.54,-121.795
153.56,-121.779
153.58,-121.763
153.6,-121.747
153.62,-121.731
153.64,-121.714
153.66,-121.698
153.68,-121.682
153.7,-121.666
153.72,-121.65
153.74,-121.633
153.76,-121.617
153.78,-121.601
153.8,-121.585
153.82,-121.569
153.84,-121.553
153.86,-121.536
153.88,-121.52
153.9,-121.504
153.92,-121.488
153.94,-121.472
153.96,-121.456
153.98,-121.44
154,-121.423
154.02,-121.407
154.04,-121.391
154.06,-121.375
154.08,-121.359
154.1,-121.343
154.12,-121.327
154.14,-121.311
154.16,-121.295
154.18,-121.279
154.2,-121.263
154.22,-121.246
154.24,-121.23
154.26,-121.214
154.28,-121.198
154.3,-121.182
154.32,-121.166
154.34,-121.15
154.36,-121.134
154.38,-121.118
154.4,-121.102
154.42,-121.086
154.44,-121.07
154.46,-121.054
154.48,-121.038
154.5,-121.022
154.52,-121.006
154.54,-120.99
154.56,-120.974
154.58,-120.958
154.6,-120.942
154.62,-120.926
154.64,-120.91
154.66,-120.894
154.68,-120.878
154.7,-120.862
154.72,-120.846
154.74,-120.83
154.76,-120.814
154.78,-120.798
154.8,-120.782
154.82,-120.767
154.84,-120.751
154.86,-120.735
154.88,-120.719
154.9,-120.703
154.92,-120.687
154.94,-120.671
154.96,-120.655
154.98,-120.639
155,-120.623
155.02,-120.608
155.04,-120.592
155.06,-120.576
155.08,-120.56
155.1,-120.544
155.12,-120.528
155.14,-120.512
155.16,-120.496
155.18,-120.481
155.2,-120.465
155.22,-120.449
155.24,-120.433
155.26,-120.417
155.28,-120.401
155.3,-120.386
155.32,-120.37
155.34,-120.354
155.36,-120.338
155.38,-120.322
155.4,-120.307
155.42,-120.291
155.44,-120.275
155.46,-120.259
155.48,-120.244
155.5,-120.228
155.52,-120.212
155.54,-120.196
155.56,-120.18
155.58,-120.165
155.6,-120.149
155.62,-120.133
155.64,-120.117
155.66,-120.102
155.68,-120.086
155.7,-120.07
155.72,-120.055
155.74,-120.039
155.76,-120.023
155.78,-120.007
155.8,-119.992
155.82,-119.976
155.84,-119.96
155.86,-119.945
155.88,-119.929
155.9,-119.913
155.92,-119.898
155.94,-119.882
155.96,-119.866
155.98,-119.851
156,-119.835
156.02,-119.819
156.04,-119.804
156.06,-119.788
156.08,-119.772
156.1,-119.757
156.12,-119.741
156.14,-119.725
156.16,-119.71
156.18,-119.694
156.2,-119.679
156.22,-119.663
156.24,-119.647
156.26,-119.632
156.28,-119.616
156.3,-119.601
156.32,-119.585
156.34,-119.569
156.36,-119.554
156.38,-119.538
156.4,-119.523
156.42,-119.507
156.44,-119.492
156.46,-119.476
156.48,-119.46
156.5,-119.445
156.52,-119.429
156.54,-119.414
156.56,-119.398
156.58,-119.383
156.6,-119.367
156.62,-119.352
156.64,-119.336
156.66,-119.321
156.68,-119.305
156.7,-119.29
156.72,-119.274
156.74,-119.259
156.76,-119.243
156.78,-119.228
156.8,-119.212
156.82,-119.197
156.84,-119.181
156.86,-119.166
156.88,-119.15
156.9,-119.135
156.92,-119.12
156.94,-119.104
156.96,-119.089
156.98,-119.073
157,-119.058
157.02,-119.042
157.04,-119.027
157.06,-119.011
157.08,-118.996
157.1,-118.981
157.12,-118.965
157.14,-118.95
157.16,-118.934
157.18,-118.919
157.2,-118.904
157.22,-118.888
157.24,-118.873
157.26,-118.858
157.28,-118.842
157.3,-118.827
157.32,-118.811
157.34,-118.796
157.36,-118.781
157.38,-118.765
157.4,-118.75
157.42,-118.735
157.44,-118.719
157.46,-118.704
157.48,-118.689
157.5,-118.673
157.52,-118.658
157.54,-118.643
157.56,-118.627
157.58,-118.612
157.6,-118.597
157.62,-118.581
157.64,-118.566
157.66,-118.551
157.68,-118.536
157.7,-118.52
157.72,-118.505
157.74,-118.49
157.76,-118.475
157.78,-118.459
157.8,-118.444
157.82,-118.429
157.84,-118.413
157.86,-118.398
157.88,-118.383
157.9,-118.368
157.92,-118.353
157.94,-118.337
157.96,-118.322
157.98,-118.307
158,-118.292
158.02,-118.276
158.04,-118.261
158.06,-118.246
158.08,-118.231
158.1,-118.216
158.12,-118.2
158.14,-118.185
158.16,-118.17
158.18,-118.155
158.2,-118.14
158.22,-118.125
158.24,-118.109
158.26,-118.094
158.28,-118.079
158.3,-118.064
158.32,-118.049
158.34,-118.034
158.36,-118.018
158.38,-118.003
158.4,-117.988
158.42,-117.973
158.44,-117.958
158.46,-117.943
158.48,-117.928
158.5,-117.913
158.52,-117.898
158.54,-117.882
158.56,-117.867
158.58,-117.852
158.6,-117.837
158.62,-117.822
158.64,-117.807
158.66,-117.792
158.68,-117.777
158.7,-117.762
158.72,-117.747
158.74,-117.732
158.76,-117.717
158.78,-117.702
158.8,-117.687
158.82,-117.671
158.84,-117.656
158.86,-117.641
158.88,-117.626
158.9,-117.611
158.92,-117.596
158.94,-117.581
158.96,-117.566
158.98,-117.551
159,-117.536
159.02,-117.521
159.04,-117.506
159.06,-117.491
159.08,-117.476
159.1,-117.461
159.12,-117.446
159.14,-117.431
159.16,-117.416
159.18,-117.401
159.2,-117.386
159.22,-117.372
159.24,-117.357
159.26,-117.342
159.28,-117.327
159.3,-117.312
159.32,-117.297
159.34,-117.282
159.36,-117.267
159.38,-117.252
159.4,-117.237
159.42,-117.222
159.44,-117.207
159.46,-117.192
159.48,-117.177
159.5,-117.163
159.52,-117.148
159.54,-117.133
159.56,-117.118
159.58,-117.103
159.6,-117.088
159.62,-117.073
159.64,-117.058
159.66,-117.044
159.68,-117.029
159.7,-117.014
159.72,-116.999
159.74,-116.984
159.76,-116.969
159.78,-116.954
159.8,-116.94
159.82,-116.925
159.84,-116.91
159.86,-116.895
159.88,-116.88
159.9,-116.865
159.92,-116.851
159.94,-116.836
159.96,-116.821
159.98,-116.806
160,-116.791
160.02,-116.777
160.04,-116.762
160.06,-116.747
160.08,-116.732
160.1,-116.718
160.12,-116.703
160.14,-116.688
160.16,-116.673
160.18,-116.659
160.2,-116.644
160.22,-116.629
160.24,-116.614
160.26,-116.6
160.28,-116.585
160.3,-116.57
160.32,-116.555
160.34,-116.541
160.36,-116.526
160.38,-116.511
160.4,-116.496
160.42,-116.482
160.44,-116.467
160.46,-116.452
160.48,-116.438
160.5,-116.423
160.52,-116.408
160.54,-116.394
160.56,-116.379
160.58,-116.364
160.6,-116.35
160.62,-116.335
160.64,-116.32
160.66,-116.306
160.68,-116.291
160.7,-116.276
160.72,-116.262
160.74,-116.247
160.76,-116.232
160.78,-116.218
160.8,-116.203
160.82,-116.188
160.84,-116.174
160.86,-116.159
160.88,-116.145
160.9,-116.13
160.92,-116.115
160.94,-116.101
160.96,-116.086
160.98,-116.072
161,-116.057
161.02,-116.042
161.04,-116.028
161.06,-116.013
161.08,-115.999
161.1,-115.984
161.12,-115.969
161.14,-115.955
161.16,-115.94
161.18,-115.926
161.2,-115.911
161.22,-115.897
161.24,-115.882
161.26,-115.868
161.28,-115.853
161.3,-115.839
161.32,-115.824
161.34,-115.809
161.36,-115.795
161.38,-115.78
161.4,-115.766
161.42,-115.751
161.44,-115.737
161.46,-115.722
161.48,-115.708
161.5,-115.693
161.52,-115.679
161.54,-115.664
161.56,-115.65
161.58,-115.636
161.6,-115.621
161.62,-115.607
161.64,-115.592
161.66,-115.578
161.68,-115.563
161.7,-115.549
161.72,-115.534
161.74,-115.52
161.76,-115.505
161.78,-115.491
161.8,-115.477
161.82,-115.462
161.84,-115.448
161.86,-115.433
161.88,-115.419
161.9,-115.404
161.92,-115.39
161.94,-115.376
161.96,-115.361
161.98,-115.347
162,-115.332
162.02,-115.318
162.04,-115.304
162.06,-115.289
162.08,-115.275
162.1,-115.261
162.12,-115.246
162.14,-115.232
162.16,-115.217
162.18,-115.203
162.2,-115.189
162.22,-115.174
162.24,-115.16
162.26,-115.146
162.28,-115.131
162.3,-115.117
162.32,-115.103
162.34,-115.088
162.36,-115.074
162.38,-115.06
162.4,-115.045
162.42,-115.031
162.44,-115.017
162.46,-115.002
162.48,-114.988
162.5,-114.974
162.52,-114.96
162.54,-114.945
162.56,-114.931
162.58,-114.917
162.6,-114.902
162.62,-114.888
162.64,-114.874
162.66,-114.86
162.68,-114.845
162.7,-114.831
162.72,-114.817
162.74,-114.803
162.76,-114.788
162.78,-114.774
162.8,-114.76
162.82,-114.746
162.84,-114.731
162.86,-114.717
162.88,-114.703
162.9,-114.689
162.92,-114.675
162.94,-114.66
162.96,-114.646
162.98,-114.632
163,-114.618
163.02,-114.604
163.04,-114.589
163.06,-114.575
163.08,-114.561
163.1,-114.547
163.12,-114.533
163.14,-114.518
163.16,-114.504
163.18,-114.49
163.2,-114.476
163.22,-114.462
163.24,-114.448
163.26,-114.434
163.28,-114.419
163.3,-114.405
163.32,-114.391
163.34,-114.377
163.36,-114.363
163.38,-114.349
163.4,-114.335
163.42,-114.32
163.44,-114.306
163.46,-114.292
163.48,-114.278
163.5,-114.264
163.52,-114.25
163.54,-114.236
163.56,-114.222
163.58,-114.208
163.6,-114.194
163.62,-114.18
163.64,-114.165
163.66,-114.151
163.68,-114.137
163.7,-114.123
163.72,-114.109
163.74,-114.095
163.76,-114.081
163.78,-114.067
163.8,-114.053
163.82,-114.039
163.84,-114.025
163.86,-114.011
163.88,-113.997
163.9,-113.983
163.92,-113.969
163.94,-113.955
163.96,-113.941
163.98,-113.927
164,-113.913
164.02,-113.899
164.04,-113.885
164.06,-113.871
164.08,-113.857
164.1,-113.843
164.12,-113.829
164.14,-113.815
164.16,-113.801
164.18,-113.787
164.2,-113.773
164.22,-113.759
164.24,-113.745
164.26,-113.731
164.28,-113.717
164.3,-113.703
164.32,-113.689
164.34,-113.675
164.36,-113.661
164.38,-113.647
164.4,-113.633
164.42,-113.619
164.44,-113.605
164.46,-113.592
164.48,-113.578
164.5,-113.564
164.52,-113.55
164.54,-113.536
164.56,-113.522
164.58,-113.508
164.6,-113.494
164.62,-113.48
164.64,-113.466
164.66,-113.453
164.68,-113.439
164.7,-113.425
164.72,-113.411
164.74,-113.397
164.76,-113.383
164.78,-113.369
164.8,-113.355
164.82,-113.342
164.84,-113.328
164.86,-113.314
164.88,-113.3
164.9,-113.286
164.92,-113.272
164.94,-113.259
164.96,-113.245
164.98,-113.231
165,-113.217
165.02,-113.203
165.04,-113.189
165.06,-113.176
165.08,-113.162
165.1,-113.148
165.12,-113.134
165.14,-113.12
165.16,-113.107
165.18,-113.093
165.2,-113.079
165.22,-113.065
165.24,-113.051
165.26,-113.038
165.28,-113.024
165.3,-113.01
165.32,-112.996
165.34,-112.983
165.36,-112.969
165.38,-112.955
165.4,-112.941
165.42,-112.928
165.44,-112.914
165.46,-112.9
165.48,-112.886
165.5,-112.873
165.52,-112.859
165.54,-112.845
165.56,-112.831
165.58,-112.818
165.6,-112.804
165.62,-112.79
165.64,-112.777
165.66,-112.763
165.68,-112.749
165.7,-112.736
165.72,-112.722
165.74,-112.708
165.76,-112.694
165.78,-112.681
165.8,-112.667
165.82,-112.653
165.84,-112.64
165.86,-112.626
165.88,-112.612
165.9,-112.599
165.92,-112.585
165.94,-112.571
165.96,-112.558
165.98,-112.544
166,-112.531
166.02,-112.517
166.04,-112.503
166.06,-112.49
166.08,-112.476
166.1,-112.462
166.12,-112.449
166.14,-112.435
166.16,-112.422
166.18,-112.408
166.2,-112.394
166.22,-112.381
166.24,-112.367
166.26,-112.354
166.28,-112.34
166.3,-112.326
166.32,-112.313
166.34,-112.299
166.36,-112.286
166.38,-112.272
166.4,-112.258
166.42,-112.245
166.44,-112.231
166.46,-112.218
166.48,-112.204
166.5,-112.191
166.52,-112.177
166.54,-112.164
166.56,-112.15
166.58,-112.137
166.6,-112.123
166.62,-112.109
166.64,-112.096
166.66,-112.082
166.68,-112.069
166.7,-112.055
166.72,-112.042
166.74,-112.028
166.76,-112.015
166.78,-112.001
166.8,-111.988
166.82,-111.974
166.84,-111.961
166.86,-111.947
166.88,-111.934
166.9,-111.92
166.92,-111.907
166.94,-111.893
166.96,-111.88
166.98,-111.867
167,-111.853
167.02,-111.84
167.04,-111.826
167.06,-111.813
167.08,-111.799
167.1,-111.786
167.12,-111.772
167.14,-111.759
167.16,-111.745
167.18,-111.732
167.2,-111.719
167.22,-111.705
167.24,-111.692
167.26,-111.678
167.28,-111.665
167.3,-111.652
167.32,-111.638
167.34,-111.625
167.36,-111.611
167.38,-111.598
167.4,-111.585
167.42,-111.571
167.44,-111.558
167.46,-111.544
167.48,-111.531
167.5,-111.518
167.52,-111.504
167.54,-111.491
167.56,-111.478
167.58,-111.464
167.6,-111.451
167.62,-111.437
167.64,-111.424
167.66,-111.411
167.68,-111.397
167.7,-111.384
167.72,-111.371
167.74,-111.357
167.76,-111.344
167.78,-111.331
167.8,-111.317
167.82,-111.304
167.84,-111.291
167.86,-111.277
167.88,-111.264
167.9,-111.251
167.92,-111.238
167.94,-111.224
167.96,-111.211
167.98,-111.198
168,-111.184
168.02,-111.171
168.04,-111.158
168.06,-111.145
168.08,-111.131
168.1,-111.118
168.12,-111.105
168.14,-111.091
168.16,-111.078
168.18,-111.065
168.2,-111.052
168.22,-111.038
168.24,-111.025
168.26,-111.012
168.28,-110.999
168.3,-110.985
168.32,-110.972
168.34,-110.959
168.36,-110.946
168.38,-110.933
168.4,-110.919
168.42,-110.906
168.44,-110.893
168.46,-110.88
168.48,-110.866
168.5,-110.853
168.52,-110.84
168.54,-110.827
168.56,-110.814
168.58,-110.8
168.6,-110.787
168.62,-110.774
168.64,-110.761
168.66,-110.748
168.68,-110.735
168.7,-110.721
168.72,-110.708
168.74,-110.695
168.76,-110.682
168.78,-110.669
168.8,-110.656
168.82,-110.642
168.84,-110.629
168.86,-110.616
168.88,-110.603
168.9,-110.59
168.92,-110.577
168.94,-110.564
168.96,-110.551
168.98,-110.537
169,-110.524
169.02,-110.511
169.04,-110.498
169.06,-110.485
169.08,-110.472
169.1,-110.459
169.12,-110.446
169.14,-110.433
169.16,-110.419
169.18,-110.406
169.2,-110.393
169.22,-110.38
169.24,-110.367
169.26,-110.354
169.28,-110.341
169.3,-110.328
169.32,-110.315
169.34,-110.302
169.36,-110.289
169.38,-110.276
169.4,-110.263
169.42,-110.25
169.44,-110.237
169.46,-110.223
169.48,-110.21
169.5,-110.197
169.52,-110.184
169.54,-110.171
169.56,-110.158
169.58,-110.145
169.6,-110.132
169.62,-110.119
169.64,-110.106
169.66,-110.093
169.68,-110.08
169.7,-110.067
169.72,-110.054
169.74,-110.041
169.76,-110.028
169.78,-110.015
169.8,-110.002
169.82,-109.989
169.84,-109.976
169.86,-109.963
169.88,-109.95
169.9,-109.937
169.92,-109.924
169.94,-109.911
169.96,-109.899
169.98,-109.886
170,-109.873
170.02,-109.86
170.04,-109.847
170.06,-109.834
170.08,-109.821
170.1,-109.808
170.12,-109.795
170.14,-109.782
170.16,-109.769
170.18,-109.756
170.2,-109.743
170.22,-109.73
170.24,-109.717
170.26,-109.705
170.28,-109.692
170.3,-109.679
170.32,-109.666
170.34,-109.653
170.36,-109.64
170.38,-109.627
170.4,-109.614
170.42,-109.601
170.44,-109.589
170.46,-109.576
170.48,-109.563
170.5,-109.55
170.52,-109.537
170.54,-109.524
170.56,-109.511
170.58,-109.498
170.6,-109.486
170.62,-109.473
170.64,-109.46
170.66,-109.447
170.68,-109.434
170.7,-109.421
170.72,-109.409
170.74,-109.396
170.76,-109.383
170.78,-109.37
170.8,-109.357
170.82,-109.344
170.84,-109.332
170.86,-109.319
170.88,-109.306
170.9,-109.293
170.92,-109.28
170.94,-109.268
170.96,-109.255
170.98,-109.242
171,-109.229
171.02,-109.216
171.04,-109.204
171.06,-109.191
171.08,-109.178
171.1,-109.165
171.12,-109.153
171.14,-109.14
171.16,-109.127
171.18,-109.114
171.2,-109.102
171.22,-109.089
171.24,-109.076
171.26,-109.063
171.28,-109.051
171.3,-109.038
171.32,-109.025
171.34,-109.012
171.36,-109
171.38,-108.987
171.4,-108.974
171.42,-108.961
171.44,-108.949
171.46,-108.936
171.48,-108.923
171.5,-108.911
171.52,-108.898
171.54,-108.885
171.56,-108.872
171.58,-108.86
171.6,-108.847
171.62,-108.834
171.64,-108.822
171.66,-108.809
171.68,-108.796
171.7,-108.784
171.72,-108.771
171.74,-108.758
171.76,-108.746
171.78,-108.733
171.8,-108.72
171.82,-108.708
171.84,-108.695
171.86,-108.682
171.88,-108.67
171.9,-108.657
171.92,-108.644
171.94,-108.632
171.96,-108.619
171.98,-108.607
172,-108.594
172.02,-108.581
172.04,-108.569
172.06,-108.556
172.08,-108.543
172.1,-108.531
172.12,-108.518
172.14,-108.506
172.16,-108.493
172.18,-108.48
172.2,-108.468
172.22,-108.455
172.24,-108.443
172.26,-108.43
172.28,-108.417
172.3,-108.405
172.32,-108.392
172.34,-108.38
172.36,-108.367
172.38,-108.355
172.4,-108.342
172.42,-108.329
172.44,-108.317
172.46,-108.304
172.48,-108.292
172.5,-108.279
172.52,-108.267
172.54,-108.254
172.56,-108.242
172.58,-108.229
172.6,-108.217
172.62,-108.204
172.64,-108.191
172.66,-108.179
172.68,-108.166
172.7,-108.154
172.72,-108.141
172.74,-108.129
172.76,-108.116
172.78,-108.104
172.8,-108.091
172.82,-108.079
172.84,-108.066
172.86,-108.054
172.88,-108.041
172.9,-108.029
172.92,-108.016
172.94,-108.004
172.96,-107.991
172.98,-107.979
173,-107.966
173.02,-107.954
173.04,-107.942
173.06,-107.929
173.08,-107.917
173.1,-107.904
173.12,-107.892
173.14,-107.879
173.16,-107.867
173.18,-107.854
173.2,-107.842
173.22,-107.83
173.24,-107.817
173.26,-107.805
173.28,-107.792
173.3,-107.78
173.32,-107.767
173.34,-107.755
173.36,-107.743
173.38,-107.73
173.4,-107.718
173.42,-107.705
173.44,-107.693
173.46,-107.68
173.48,-107.668
173.5,-107.656
173.52,-107.643
173.54,-107.631
173.56,-107.619
173.58,-107.606
173.6,-107.594
173.62,-107.581
173.64,-107.569
173.66,-107.557
173.68,-107.544
173.7,-107.532
173.72,-107.52
173.74,-107.507
173.76,-107.495
173.78,-107.483
173.8,-107.47
173.82,-107.458
173.84,-107.445
173.86,-107.433
173.88,-107.421
173.9,-107.408
173.92,-107.396
173.94,-107.384
173.96,-107.371
173.98,-107.359
174,-107.347
174.02,-107.335
174.04,-107.322
174.06,-107.31
174.08,-107.298
174.1,-107.285
174.12,-107.273
174.14,-107.261
174.16,-107.248
174.18,-107.236
174.2,-107.224
174.22,-107.212
174.24,-107.199
174.26,-107.187
174.28,-107.175
174.3,-107.162
174.32,-107.15
174.34,-107.138
174.36,-107.126
174.38,-107.113
174.4,-107.101
174.42,-107.089
174.44,-107.077
174.46,-107.064
174.48,-107.052
174.5,-107.04
174.52,-107.028
174.54,-107.015
174.56,-107.003
174.58,-106.991
174.6,-106.979
174.62,-106.966
174.64,-106.954
174.66,-106.942
174.68,-106.93
174.7,-106.918
174.72,-106.905
174.74,-106.893
174.76,-106.881
174.78,-106.869
174.8,-106.857
174.82,-106.844
174.84,-106.832
174.86,-106.82
174.88,-106.808
174.9,-106.796
174.92,-106.783
174.94,-106.771
174.96,-106.759
174.98,-106.747
175,-106.735
175.02,-106.723
175.04,-106.71
175.06,-106.698
175.08,-106.686
175.1,-106.674
175.12,-106.662
175.14,-106.65
175.16,-106.638
175.18,-106.625
175.2,-106.613
175.22,-106.601
175.24,-106.589
175.26,-106.577
175.28,-106.565
175.3,-106.553
175.32,-106.541
175.34,-106.528
175.36,-106.516
175.38,-106.504
175.4,-106.492
175.42,-106.48
175.44,-106.468
175.46,-106.456
175.48,-106.444
175.5,-106.432
175.52,-106.42
175.54,-106.407
175.56,-106.395
175.58,-106.383
175.6,-106.371
175.62,-106.359
175.64,-106.347
175.66,-106.335
175.68,-106.323
175.7,-106.311
175.72,-106.299
175.74,-106.287
175.76,-106.275
175.78,-106.263
175.8,-106.251
175.82,-106.239
175.84,-106.226
175.86,-106.214
175.88,-106.202
175.9,-106.19
175.92,-106.178
175.94,-106.166
175.96,-106.154
175.98,-106.142
176,-106.13
176.02,-106.118
176.04,-106.106
176.06,-106.094
176.08,-106.082
176.1,-106.07
176.12,-106.058
176.14,-106.046
176.16,-106.034
176.18,-106.022
176.2,-106.01
176.22,-105.998
176.24,-105.986
176.26,-105.974
176.28,-105.962
176.3,-105.95
176.32,-105.938
176.34,-105.926
176.36,-105.914
176.38,-105.902
176.4,-105.89
176.42,-105.878
176.44,-105.867
176.46,-105.855
176.48,-105.843
176.5,-105.831
176.52,-105.819
176.54,-105.807
176.56,-105.795
176.58,-105.783
176.6,-105.771
176.62,-105.759
176.64,-105.747
176.66,-105.735
176.68,-105.723
176.7,-105.711
176.72,-105.699
176.74,-105.688
176.76,-105.676
176.78,-105.664
176.8,-105.652
176.82,-105.64
176.84,-105.628
176.86,-105.616
176.88,-105.604
176.9,-105.592
176.92,-105.58
176.94,-105.569
176.96,-105.557
176.98,-105.545
177,-105.533
177.02,-105.521
177.04,-105.509
177.06,-105.497
177.08,-105.485
177.1,-105.474
177.12,-105.462
177.14,-105.45
177.16,-105.438
177.18,-105.426
177.2,-105.414
177.22,-105.403
177.24,-105.391
177.26,-105.379
177.28,-105.367
177.3,-105.355
177.32,-105.343
177.34,-105.332
177.36,-105.32
177.38,-105.308
177.4,-105.296
177.42,-105.284
177.44,-105.272
177.46,-105.261
177.48,-105.249
177.5,-105.237
177.52,-105.225
177.54,-105.213
177.56,-105.202
177.58,-105.19
177.6,-105.178
177.62,-105.166
177.64,-105.154
177.66,-105.143
177.68,-105.131
177.7,-105.119
177.72,-105.107
177.74,-105.096
177.76,-105.084
177.78,-105.072
177.8,-105.06
177.82,-105.049
177.84,-105.037
177.86,-105.025
177.88,-105.013
177.9,-105.002
177.92,-104.99
177.94,-104.978
177.96,-104.966
177.98,-104.955
178,-104.943
178.02,-104.931
178.04,-104.919
178.06,-104.908
178.08,-104.896
178.1,-104.884
178.12,-104.873
178.14,-104.861
178.16,-104.849
178.18,-104.837
178.2,-104.826
178.22,-104.814
178.24,-104.802
178.26,-104.791
178.28,-104.779
178.3,-104.767
178.32,-104.756
178.34,-104.744
178.36,-104.732
178.38,-104.72
178.4,-104.709
178.42,-104.697
178.44,-104.685
178.46,-104.674
178.48,-104.662
178.5,-104.65
178.52,-104.639
178.54,-104.627
178.56,-104.615
178.58,-104.604
178.6,-104.592
178.62,-104.581
178.64,-104.569
178.66,-104.557
178.68,-104.546
178.7,-104.534
178.72,-104.522
178.74,-104.511
178.76,-104.499
178.78,-104.487
178.8,-104.476
178.82,-104.464
178.84,-104.453
178.86,-104.441
178.88,-104.429
178.9,-104.418
178.92,-104.406
178.94,-104.395
178.96,-104.383
178.98,-104.371
179,-104.36
179.02,-104.348
179.04,-104.337
179.06,-104.325
179.08,-104.313
179.1,-104.302
179.12,-104.29
179.14,-104.279
179.16,-104.267
179.18,-104.256
179.2,-104.244
179.22,-104.232
179.24,-104.221
179.26,-104.209
179.28,-104.198
179.3,-104.186
179.32,-104.175
179.34,-104.163
179.36,-104.152
179.38,-104.14
179.4,-104.128
179.42,-104.117
179.44,-104.105
179.46,-104.094
179.48,-104.082
179.5,-104.071
179.52,-104.059
179.54,-104.048
179.56,-104.036
179.58,-104.025
179.6,-104.013
179.62,-104.002
179.64,-103.99
179.66,-103.979
179.68,-103.967
179.7,-103.956
179.72,-103.944
179.74,-103.933
179.76,-103.921
179.78,-103.91
179.8,-103.898
179.82,-103.887
179.84,-103.875
179.86,-103.864
179.88,-103.852
179.9,-103.841
179.92,-103.829
179.94,-103.818
179.96,-103.807
179.98,-103.795
180,-103.784
180.02,-103.772
180.04,-103.761
180.06,-103.749
180.08,-103.738
180.1,-103.726
180.12,-103.715
180.14,-103.703
180.16,-103.692
180.18,-103.681
180.2,-103.669
180.22,-103.658
180.24,-103.646
180.26,-103.635
180.28,-103.623
180.3,-103.612
180.32,-103.601
180.34,-103.589
180.36,-103.578
180.38,-103.566
180.4,-103.555
180.42,-103.544
180.44,-103.532
180.46,-103.521
180.48,-103.509
180.5,-103.498
180.52,-103.487
180.54,-103.475
180.56,-103.464
180.58,-103.453
180.6,-103.441
180.62,-103.43
180.64,-103.418
180.66,-103.407
180.68,-103.396
180.7,-103.384
180.72,-103.373
180.74,-103.362
180.76,-103.35
180.78,-103.339
180.8,-103.328
180.82,-103.316
180.84,-103.305
180.86,-103.293
180.88,-103.282
180.9,-103.271
180.92,-103.259
180.94,-103.248
180.96,-103.237
180.98,-103.225
181,-103.214
181.02,-103.203
181.04,-103.192
181.06,-103.18
181.08,-103.169
181.1,-103.158
181.12,-103.146
181.14,-103.135
181.16,-103.124
181.18,-103.112
181.2,-103.101
181.22,-103.09
181.24,-103.079
181.26,-103.067
181.28,-103.056
181.3,-103.045
181.32,-103.033
181.34,-103.022
181.36,-103.011
181.38,-103
181.4,-102.988
181.42,-102.977
181.44,-102.966
181.46,-102.954
181.48,-102.943
181.5,-102.932
181.52,-102.921
181.54,-102.909
181.56,-102.898
181.58,-102.887
181.6,-102.876
181.62,-102.864
181.64,-102.853
181.66,-102.842
181.68,-102.831
181.7,-102.82
181.72,-102.808
181.74,-102.797
181.76,-102.786
181.78,-102.775
181.8,-102.763
181.82,-102.752
181.84,-102.741
181.86,-102.73
181.88,-102.719
181.9,-102.707
181.92,-102.696
181.94,-102.685
181.96,-102.674
181.98,-102.663
182,-102.651
182.02,-102.64
182.04,-102.629
182.06,-102.618
182.08,-102.607
182.1,-102.595
182.12,-102.584
182.14,-102.573
182.16,-102.562
182.18,-102.551
182.2,-102.54
182.22,-102.528
182.24,-102.517
182.26,-102.506
182.28,-102.495
182.3,-102.484
182.32,-102.473
182.34,-102.462
182.36,-102.45
182.38,-102.439
182.4,-102.428
182.42,-102.417
182.44,-102.406
182.46,-102.395
182.48,-102.384
182.5,-102.372
182.52,-102.361
182.54,-102.35
182.56,-102.339
182.58,-102.328
182.6,-102.317
182.62,-102.306
182.64,-102.295
182.66,-102.284
182.68,-102.272
182.7,-102.261
182.72,-102.25
182.74,-102.239
182.76,-102.228
182.78,-102.217
182.8,-102.206
182.82,-102.195
182.84,-102.184
182.86,-102.173
182.88,-102.162
182.9,-102.15
182.92,-102.139
182.94,-102.128
182.96,-102.117
182.98,-102.106
183,-102.095
183.02,-102.084
183.04,-102.073
183.06,-102.062
183.08,-102.051
183.1,-102.04
183.12,-102.029
183.14,-102.018
183.16,-102.007
183.18,-101.996
183.2,-101.985
183.22,-101.974
183.24,-101.963
183.26,-101.952
183.28,-101.941
183.3,-101.929
183.32,-101.918
183.34,-101.907
183.36,-101.896
183.38,-101.885
183.4,-101.874
183.42,-101.863
183.44,-101.852
183.46,-101.841
183.48,-101.83
183.5,-101.819
183.52,-101.808
183.54,-101.797
183.56,-101.786
183.58,-101.775
183.6,-101.764
183.62,-101.753
183.64,-101.742
183.66,-101.731
183.68,-101.721
183.7,-101.71
183.72,-101.699
183.74,-101.688
183.76,-101.677
183.78,-101.666
183.8,-101.655
183.82,-101.644
183.84,-101.633
183.86,-101.622
183.88,-101.611
183.9,-101.6
183.92,-101.589
183.94,-101.578
183.96,-101.567
183.98,-101.556
184,-101.545
184.02,-101.534
184.04,-101.523
184.06,-101.512
184.08,-101.502
184.1,-101.491
184.12,-101.48
184.14,-101.469
184.16,-101.458
184.18,-101.447
184.2,-101.436
184.22,-101.425
184.24,-101.414
184.26,-101.403
184.28,-101.392
184.3,-101.382
184.32,-101.371
184.34,-101.36
184.36,-101.349
184.38,-101.338
184.4,-101.327
184.42,-101.316
184.44,-101.305
184.46,-101.294
184.48,-101.284
184.5,-101.273
184.52,-101.262
184.54,-101.251
184.56,-101.24
184.58,-101.229
184.6,-101.218
184.62,-101.207
184.64,-101.197
184.66,-101.186
184.68,-101.175
184.7,-101.164
184.72,-101.153
184.74,-101.142
184.76,-101.132
184.78,-101.121
184.8,-101.11
184.82,-101.099
184.84,-101.088
184.86,-101.077
184.88,-101.067
184.9,-101.056
184.92,-101.045
184.94,-101.034
184.96,-101.023
184.98,-101.012
185,-101.002
185.02,-100.991
185.04,-100.98
185.06,-100.969
185.08,-100.958
185.1,-100.948
185.12,-100.937
185.14,-100.926
185.16,-100.915
185.18,-100.904
185.2,-100.894
185.22,-100.883
185.24,-100.872
185.26,-100.861
185.28,-100.851
185.3,-100.84
185.32,-100.829
185.34,-100.818
185.36,-100.807
185.38,-100.797
185.4,-100.786
185.42,-100.775
185.44,-100.764
185.46,-100.754
185.48,-100.743
185.5,-100.732
185.52,-100.721
185.54,-100.711
185.56,-100.7
185.58,-100.689
185.6,-100.678
185.62,-100.668
185.64,-100.657
185.66,-100.646
185.68,-100.636
185.7,-100.625
185.72,-100.614
185.74,-100.603
185.76,-100.593
185.78,-100.582
185.8,-100.571
185.82,-100.56
185.84,-100.55
185.86,-100.539
185.88,-100.528
185.9,-100.518
185.92,-100.507
185.94,-100.496
185.96,-100.486
185.98,-100.475
186,-100.464
186.02,-100.454
186.04,-100.443
186.06,-100.432
186.08,-100.421
186.1,-100.411
186.12,-100.4
186.14,-100.389
186.16,-100.379
186.18,-100.368
186.2,-100.357
186.22,-100.347
186.24,-100.336
186.26,-100.325
186.28,-100.315
186.3,-100.304
186.32,-100.294
186.34,-100.283
186.36,-100.272
186.38,-100.262
186.4,-100.251
186.42,-100.24
186.44,-100.23
186.46,-100.219
186.48,-100.208
186.5,-100.198
186.52,-100.187
186.54,-100.177
186.56,-100.166
186.58,-100.155
186.6,-100.145
186.62,-100.134
186.64,-100.123
186.66,-100.113
186.68,-100.102
186.7,-100.092
186.72,-100.081
186.74,-100.07
186.76,-100.06
186.78,-100.049
186.8,-100.039
186.82,-100.028
186.84,-100.017
186.86,-100.007
186.88,-99.9963
186.9,-99.9857
186.92,-99.9751
186.94,-99.9645
186.96,-99.954
186.98,-99.9434
187,-99.9328
187.02,-99.9222
187.04,-99.9117
187.06,-99.9011
187.08,-99.8906
187.1,-99.88
187.12,-99.8694
187.14,-99.8589
187.16,-99.8483
187.18,-99.8378
187.2,-99.8272
187.22,-99.8167
187.24,-99.8062
187.26,-99.7956
187.28,-99.7851
187.3,-99.7746
187.32,-99.764
187.34,-99.7535
187.36,-99.743
187.38,-99.7324
187.4,-99.7219
187.42,-99.7114
187.44,-99.7009
187.46,-99.6904
187.48,-99.6799
187.5,-99.6693
187.52,-99.6588
187.54,-99.6483
187.56,-99.6378
187.58,-99.6273
187.6,-99.6168
187.62,-99.6063
187.64,-99.5958
187.66,-99.5854
187.68,-99.5749
187.7,-99.5644
187.72,-99.5539
187.74,-99.5434
187.76,-99.5329
187.78,-99.5225
187.8,-99.512
187.82,-99.5015
187.84,-99.491
187.86,-99.4806
187.88,-99.4701
187.9,-99.4596
187.92,-99.4492
187.94,-99.4387
187.96,-99.4283
187.98,-99.4178
188,-99.4074
188.02,-99.3969
188.04,-99.3865
188.06,-99.376
188.08,-99.3656
188.1,-99.3551
188.12,-99.3447
188.14,-99.3343
188.16,-99.3238
188.18,-99.3134
188.2,-99.303
188.22,-99.2925
188.24,-99.2821
188.26,-99.2717
188.28,-99.2613
188.3,-99.2509
188.32,-99.2405
188.34,-99.23
188.36,-99.2196
188.38,-99.2092
188.4,-99.1988
188.42,-99.1884
188.44,-99.178
188.46,-99.1676
188.48,-99.1572
188.5,-99.1468
188.52,-99.1364
188.54,-99.126
188.56,-99.1157
188.58,-99.1053
188.6,-99.0949
188.62,-99.0845
188.64,-99.0741
188.66,-99.0638
188.68,-99.0534
188.7,-99.043
188.72,-99.0327
188.74,-99.0223
188.76,-99.0119
188.78,-99.0016
188.8,-98.9912
188.82,-98.9808
188.84,-98.9705
188.86,-98.9601
188.88,-98.9498
188.9,-98.9394
188.92,-98.9291
188.94,-98.9188
188.96,-98.9084
188.98,-98.8981
189,-98.8877
189.02,-98.8774
189.04,-98.8671
189.06,-98.8567
189.08,-98.8464
189.1,-98.8361
189.12,-98.8258
189.14,-98.8155
189.16,-98.8051
189.18,-98.7948
189.2,-98.7845
189.22,-98.7742
189.24,-98.7639
189.26,-98.7536
189.28,-98.7433
189.3,-98.733
189.32,-98.7227
189.34,-98.7124
189.36,-98.7021
189.38,-98.6918
189.4,-98.6815
189.42,-98.6712
189.44,-98.6609
189.46,-98.6507
189.48,-98.6404
189.5,-98.6301
189.52,-98.6198
189.54,-98.6095
189.56,-98.5993
189.58,-98.589
189.6,-98.5787
189.62,-98.5685
189.64,-98.5582
189.66,-98.5479
189.68,-98.5377
189.7,-98.5274
189.72,-98.5172
189.74,-98.5069
189.76,-98.4967
189.78,-98.4864
189.8,-98.4762
189.82,-98.4659
189.84,-98.4557
189.86,-98.4455
189.88,-98.4352
189.9,-98.425
189.92,-98.4148
189.94,-98.4045
189.96,-98.3943
189.98,-98.3841
190,-98.3739
190.02,-98.3636
190.04,-98.3534
190.06,-98.3432
190.08,-98.333
190.1,-98.3228
190.12,-98.3126
190.14,-98.3024
190.16,-98.2922
190.18,-98.282
190.2,-98.2718
190.22,-98.2616
190.24,-98.2514
190.26,-98.2412
190.28,-98.231
190.3,-98.2208
190.32,-98.2106
190.34,-98.2004
190.36,-98.1902
190.38,-98.1801
190.4,-98.1699
190.42,-98.1597
190.44,-98.1495
190.46,-98.1394
190.48,-98.1292
190.5,-98.119
190.52,-98.1089
190.54,-98.0987
190.56,-98.0886
190.58,-98.0784
190.6,-98.0682
190.62,-98.0581
190.64,-98.0479
190.66,-98.0378
190.68,-98.0276
190.7,-98.0175
190.72,-98.0074
190.74,-97.9972
190.76,-97.9871
190.78,-97.9769
190.8,-97.9668
190.82,-97.9567
190.84,-97.9466
190.86,-97.9364
190.88,-97.9263
190.9,-97.9162
190.92,-97.9061
190.94,-97.8959
190.96,-97.8858
190.98,-97.8757
191,-97.8656
191.02,-97.8555
191.04,-97.8454
191.06,-97.8353
191.08,-97.8252
191.1,-97.8151
191.12,-97.805
191.14,-97.7949
191.16,-97.7848
191.18,-97.7747
191.2,-97.7646
191.22,-97.7545
191.24,-97.7445
191.26,-97.7344
191.28,-97.7243
191.3,-97.7142
191.32,-97.7041
191.34,-97.6941
191.36,-97.684
191.38,-97.6739
191.4,-97.6639
191.42,-97.6538
191.44,-97.6437
191.46,-97.6337
191.48,-97.6236
191.5,-97.6136
191.52,-97.6035
191.54,-97.5935
191.56,-97.5834
191.58,-97.5734
191.6,-97.5633
191.62,-97.5533
191.64,-97.5432
191.66,-97.5332
191.68,-97.5232
191.7,-97.5131
191.72,-97.5031
191.74,-97.4931
191.76,-97.483
191.78,-97.473
191.8,-97.463
191.82,-97.453
191.84,-97.443
191.86,-97.4329
191.88,-97.4229
191.9,-97.4129
191.92,-97.4029
191.94,-97.3929
191.96,-97.3829
191.98,-97.3729
192,-97.3629
192.02,-97.3529
192.04,-97.3429
192.06,-97.3329
192.08,-97.3229
192.1,-97.3129
192.12,-97.3029
192.14,-97.2929
192.16,-97.283
192.18,-97.273
192.2,-97.263
192.22,-97.253
192.24,-97.2431
192.26,-97.2331
192.28,-97.2231
192.3,-97.2131
192.32,-97.2032
192.34,-97.1932
192.36,-97.1833
192.38,-97.1733
192.4,-97.1633
192.42,-97.1534
192.44,-97.1434
192.46,-97.1335
192.48,-97.1235
192.5,-97.1136
192.52,-97.1036
192.54,-97.0937
192.56,-97.0838
192.58,-97.0738
192.6,-97.0639
192.62,-97.0539
192.64,-97.044
192.66,-97.0341
192.68,-97.0242
192.7,-97.0142
192.72,-97.0043
192.74,-96.9944
192.76,-96.9845
192.78,-96.9746
192.8,-96.9646
192.82,-96.9547
192.84,-96.9448
192.86,-96.9349
192.88,-96.925
192.9,-96.9151
192.92,-96.9052
192.94,-96.8953
192.96,-96.8854
192.98,-96.8755
193,-96.8656
193.02,-96.8557
193.04,-96.8458
193.06,-96.8359
193.08,-96.8261
193.1,-96.8162
193.12,-96.8063
193.14,-96.7964
193.16,-96.7865
193.18,-96.7767
193.2,-96.7668
193.22,-96.7569
193.24,-96.7471
193.26,-96.7372
193.28,-96.7273
193.3,-96.7175
193.32,-96.7076
193.34,-96.6978
193.36,-96.6879
193.38,-96.6781
193.4,-96.6682
193.42,-96.6584
193.44,-96.6485
193.46,-96.6387
193.48,-96.6288
193.5,-96.619
193.52,-96.6091
193.54,-96.5993
193.56,-96.5895
193.58,-96.5796
193.6,-96.5698
193.62,-96.56
193.64,-96.5502
193.66,-96.5403
193.68,-96.5305
193.7,-96.5207
193.72,-96.5109
193.74,-96.5011
193.76,-96.4913
193.78,-96.4815
193.8,-96.4716
193.82,-96.4618
193.84,-96.452
193.86,-96.4422
193.88,-96.4324
193.9,-96.4226
193.92,-96.4128
193.94,-96.403
193.96,-96.3933
193.98,-96.3835
194,-96.3737
194.02,-96.3639
194.04,-96.3541
194.06,-96.3443
194.08,-96.3346
194.1,-96.3248
194.12,-96.315
194.14,-96.3052
194.16,-96.2955
194.18,-96.2857
194.2,-96.2759
194.22,-96.2662
194.24,-96.2564
194.26,-96.2466
194.28,-96.2369
194.3,-96.2271
194.32,-96.2174
194.34,-96.2076
194.36,-96.1979
194.38,-96.1881
194.4,-96.1784
194.42,-96.1686
194.44,-96.1589
194.46,-96.1492
194.48,-96.1394
194.5,-96.1297
194.52,-96.12
194.54,-96.1102
194.56,-96.1005
194.58,-96.0908
194.6,-96.0811
194.62,-96.0713
194.64,-96.0616
194.66,-96.0519
194.68,-96.0422
194.7,-96.0325
194.72,-96.0228
194.74,-96.013
194.76,-96.0033
194.78,-95.9936
194.8,-95.9839
194.82,-95.9742
194.84,-95.9645
194.86,-95.9548
194.88,-95.9451
194.9,-95.9354
194.92,-95.9257
194.94,-95.9161
194.96,-95.9064
194.98,-95.8967
195,-95.887
195.02,-95.8773
195.04,-95.8676
195.06,-95.858
195.08,-95.8483
195.1,-95.8386
195.12,-95.829
195.14,-95.8193
195.16,-95.8096
195.18,-95.8
195.2,-95.7903
195.22,-95.7806
195.24,-95.771
195.26,-95.7613
195.28,-95.7517
195.3,-95.742
195.32,-95.7324
195.34,-95.7227
195.36,-95.7131
195.38,-95.7034
195.4,-95.6938
195.42,-95.6841
195.44,-95.6745
195.46,-95.6649
195.48,-95.6552
195.5,-95.6456
195.52,-95.636
195.54,-95.6264
195.56,-95.6167
195.58,-95.6071
195.6,-95.5975
195.62,-95.5879
195.64,-95.5782
195.66,-95.5686
195.68,-95.559
195.7,-95.5494
195.72,-95.5398
195.74,-95.5302
195.76,-95.5206
195.78,-95.511
195.8,-95.5014
195.82,-95.4918
195.84,-95.4822
195.86,-95.4726
195.88,-95.463
195.9,-95.4534
195.92,-95.4438
195.94,-95.4342
195.96,-95.4247
195.98,-95.4151
196,-95.4055
196.02,-95.3959
196.04,-95.3863
196.06,-95.3768
196.08,-95.3672
196.1,-95.3576
196.12,-95.3481
196.14,-95.3385
196.16,-95.3289
196.18,-95.3194
196.2,-95.3098
196.22,-95.3002
196.24,-95.2907
196.26,-95.2811
196.28,-95.2716
196.3,-95.262
196.32,-95.2525
196.34,-95.2429
196.36,-95.2334
196.38,-95.2239
196.4,-95.2143
196.42,-95.2048
196.44,-95.1952
196.46,-95.1857
196.48,-95.1762
196.5,-95.1666
196.52,-95.1571
196.54,-95.1476
196.56,-95.1381
196.58,-95.1286
196.6,-95.119
196.62,-95.1095
196.64,-95.1
196.66,-95.0905
196.68,-95.081
196.7,-95.0715
196.72,-95.062
196.74,-95.0525
196.76,-95.0429
196.78,-95.0334
196.8,-95.0239
196.82,-95.0144
196.84,-95.005
196.86,-94.9955
196.88,-94.986
196.9,-94.9765
196.92,-94.967
196.94,-94.9575
196.96,-94.948
196.98,-94.9385
197,-94.9291
197.02,-94.9196
197.04,-94.9101
197.06,-94.9006
197.08,-94.8912
197.1,-94.8817
197.12,-94.8722
197.14,-94.8628
197.16,-94.8533
197.18,-94.8438
197.2,-94.8344
197.22,-94.8249
197.24,-94.8155
197.26,-94.806
197.28,-94.7966
197.3,-94.7871
197.32,-94.7777
197.34,-94.7682
197.36,-94.7588
197.38,-94.7493
197.4,-94.7399
197.42,-94.7305
197.44,-94.721
197.46,-94.7116
197.48,-94.7022
197.5,-94.6927
197.52,-94.6833
197.54,-94.6739
197.56,-94.6644
197.58,-94.655
197.6,-94.6456
197.62,-94.6362
197.64,-94.6268
197.66,-94.6174
197.68,-94.6079
197.7,-94.5985
197.72,-94.5891
197.74,-94.5797
197.76,-94.5703
197.78,-94.5609
197.8,-94.5515
197.82,-94.5421
197.84,-94.5327
197.86,-94.5233
197.88,-94.5139
197.9,-94.5045
197.92,-94.4952
197.94,-94.4858
197.96,-94.4764
197.98,-94.467
198,-94.4576
198.02,-94.4482
198.04,-94.4389
198.06,-94.4295
198.08,-94.4201
198.1,-94.4108
198.12,-94.4014
198.14,-94.392
198.16,-94.3827
198.18,-94.3733
198.2,-94.3639
198.22,-94.3546
198.24,-94.3452
198.26,-94.3359
198.28,-94.3265
198.3,-94.3172
198.32,-94.3078
198.34,-94.2985
198.36,-94.2891
198.38,-94.2798
198.4,-94.2704
198.42,-94.2611
198.44,-94.2518
198.46,-94.2424
198.48,-94.2331
198.5,-94.2238
198.52,-94.2144
198.54,-94.2051
198.56,-94.1958
198.58,-94.1864
198.6,-94.1771
198.62,-94.1678
198.64,-94.1585
198.66,-94.1492
198.68,-94.1399
198.7,-94.1305
198.72,-94.1212
198.74,-94.1119
198.76,-94.1026
198.78,-94.0933
198.8,-94.084
198.82,-94.0747
198.84,-94.0654
198.86,-94.0561
198.88,-94.0468
198.9,-94.0375
198.92,-94.0282
198.94,-94.019
198.96,-94.0097
198.98,-94.0004
199,-93.9911
199.02,-93.9818
199.04,-93.9725
199.06,-93.9633
199.08,-93.954
199.1,-93.9447
199.12,-93.9354
199.14,-93.9262
199.16,-93.9169
199.18,-93.9076
199.2,-93.8984
199.22,-93.8891
199.24,-93.8799
199.26,-93.8706
199.28,-93.8613
199.3,-93.8521
199.32,-93.8428
199.34,-93.8336
199.36,-93.8243
199.38,-93.8151
199.4,-93.8058
199.42,-93.7966
199.44,-93.7874
199.46,-93.7781
199.48,-93.7689
199.5,-93.7597
199.52,-93.7504
199.54,-93.7412
199.56,-93.732
199.58,-93.7227
199.6,-93.7135
199.62,-93.7043
199.64,-93.6951
199.66,-93.6858
199.68,-93.6766
199.7,-93.6674
199.72,-93.6582
199.74,-93.649
199.76,-93.6398
199.78,-93.6306
199.8,-93.6214
199.82,-93.6122
199.84,-93.603
199.86,-93.5938
199.88,-93.5846
199.9,-93.5754
199.92,-93.5662
199.94,-93.557
199.96,-93.5478
199.98,-93.5386
200,-93.5294
200.02,-93.5202
200.04,-93.511
200.06,-93.5019
200.08,-93.4927
200.1,-93.4835
200.12,-93.4743
200.14,-93.4652
200.16,-93.456
200.18,-93.4468
200.2,-93.4376
200.22,-93.4285
200.24,-93.4193
200.26,-93.4101
200.28,-93.401
200.3,-93.3918
200.32,-93.3827
200.34,-93.3735
200.36,-93.3644
200.38,-93.3552
200.4,-93.3461
200.42,-93.3369
200.44,-93.3278
200.46,-93.3186
200.48,-93.3095
200.5,-93.3003
200.52,-93.2912
200.54,-93.2821
200.56,-93.2729
200.58,-93.2638
200.6,-93.2547
200.62,-93.2455
200.64,-93.2364
200.66,-93.2273
200.68,-93.2182
200.7,-93.2091
200.72,-93.1999
200.74,-93.1908
200.76,-93.1817
200.78,-93.1726
200.8,-93.1635
200.82,-93.1544
200.84,-93.1453
200.86,-93.1362
200.88,-93.1271
200.9,-93.1179
200.92,-93.1088
200.94,-93.0997
200.96,-93.0907
200.98,-93.0816
201,-93.0725
201.02,-93.0634
201.04,-93.0543
201.06,-93.0452
201.08,-93.0361
201.1,-93.027
201.12,-93.0179
201.14,-93.0089
201.16,-92.9998
201.18,-92.9907
201.2,-92.9816
201.22,-92.9726
201.24,-92.9635
201.26,-92.9544
201.28,-92.9454
201.3,-92.9363
201.32,-92.9272
201.34,-92.9182
201.36,-92.9091
201.38,-92.9001
201.4,-92.891
201.42,-92.8819
201.44,-92.8729
201.46,-92.8638
201.48,-92.8548
201.5,-92.8458
201.52,-92.8367
201.54,-92.8277
201.56,-92.8186
201.58,-92.8096
201.6,-92.8006
201.62,-92.7915
201.64,-92.7825
201.66,-92.7735
201.68,-92.7644
201.7,-92.7554
201.72,-92.7464
201.74,-92.7373
201.76,-92.7283
201.78,-92.7193
201.8,-92.7103
201.82,-92.7013
201.84,-92.6923
201.86,-92.6832
201.88,-92.6742
201.9,-92.6652
201.92,-92.6562
201.94,-92.6472
201.96,-92.6382
201.98,-92.6292
202,-92.6202
202.02,-92.6112
202.04,-92.6022
202.06,-92.5932
202.08,-92.5842
202.1,-92.5752
202.12,-92.5662
202.14,-92.5573
202.16,-92.5483
202.18,-92.5393
202.2,-92.5303
202.22,-92.5213
202.24,-92.5123
202.26,-92.5034
202.28,-92.4944
202.3,-92.4854
202.32,-92.4765
202.34,-92.4675
202.36,-92.4585
202.38,-92.4496
202.4,-92.4406
202.42,-92.4316
202.44,-92.4227
202.46,-92.4137
202.48,-92.4048
202.5,-92.3958
202.52,-92.3868
202.54,-92.3779
202.56,-92.3689
202.58,-92.36
202.6,-92.3511
202.62,-92.3421
202.64,-92.3332
202.66,-92.3242
202.68,-92.3153
202.7,-92.3064
202.72,-92.2974
202.74,-92.2885
202.76,-92.2796
202.78,-92.2706
202.8,-92.2617
202.82,-92.2528
202.84,-92.2439
202.86,-92.2349
202.88,-92.226
202.9,-92.2171
202.92,-92.2082
202.94,-92.1993
202.96,-92.1904
202.98,-92.1814
203,-92.1725
203.02,-92.1636
203.04,-92.1547
203.06,-92.1458
203.08,-92.1369
203.1,-92.128
203.12,-92.1191
203.14,-92.1102
203.16,-92.1013
203.18,-92.0924
203.2,-92.0835
203.22,-92.0747
203.24,-92.0658
203.26,-92.0569
203.28,-92.048
203.3,-92.0391
203.32,-92.0302
203.34,-92.0214
203.36,-92.0125
203.38,-92.0036
203.4,-91.9947
203.42,-91.9859
203.44,-91.977
203.46,-91.9681
203.48,-91.9593
203.5,-91.9504
203.52,-91.9415
203.54,-91.9327
203.56,-91.9238
203.58,-91.915
203.6,-91.9061
203.62,-91.8973
203.64,-91.8884
203.66,-91.8796
203.68,-91.8707
203.7,-91.8619
203.72,-91.853
203.74,-91.8442
203.76,-91.8353
203.78,-91.8265
203.8,-91.8177
203.82,-91.8088
203.84,-91.8
203.86,-91.7912
203.88,-91.7823
203.9,-91.7735
203.92,-91.7647
203.94,-91.7559
203.96,-91.747
203.98,-91.7382
204,-91.7294
204.02,-91.7206
204.04,-91.7118
204.06,-91.703
204.08,-91.6941
204.1,-91.6853
204.12,-91.6765
204.14,-91.6677
204.16,-91.6589
204.18,-91.6501
204.2,-91.6413
204.22,-91.6325
204.24,-91.6237
204.26,-91.6149
204.28,-91.6061
204.3,-91.5973
204.32,-91.5885
204.34,-91.5798
204.36,-91.571
204.38,-91.5622
204.4,-91.5534
204.42,-91.5446
204.44,-91.5358
204.46,-91.5271
204.48,-91.5183
204.5,-91.5095
204.52,-91.5007
204.54,-91.492
204.56,-91.4832
204.58,-91.4744
204.6,-91.4657
204.62,-91.4569
204.64,-91.4481
204.66,-91.4394
204.68,-91.4306
204.7,-91.4219
204.72,-91.4131
204.74,-91.4043
204.76,-91.3956
204.78,-91.3868
204.8,-91.3781
204.82,-91.3694
204.84,-91.3606
204.86,-91.3519
204.88,-91.3431
204.9,-91.3344
204.92,-91.3256
204.94,-91.3169
204.96,-91.3082
204.98,-91.2994
205,-91.2907
205.02,-91.282
205.04,-91.2733
205.06,-91.2645
205.08,-91.2558
205.1,-91.2471
205.12,-91.2384
205.14,-91.2297
205.16,-91.2209
205.18,-91.2122
205.2,-91.2035
205.22,-91.1948
205.24,-91.1861
205.26,-91.1774
205.28,-91.1687
205.3,-91.16
205.32,-91.1513
205.34,-91.1426
205.36,-91.1339
205.38,-91.1252
205.4,-91.1165
205.42,-91.1078
205.44,-91.0991
205.46,-91.0904
205.48,-91.0817
205.5,-91.073
205.52,-91.0643
205.54,-91.0557
205.56,-91.047
205.58,-91.0383
205.6,-91.0296
205.62,-91.0209
205.64,-91.0123
205.66,-91.0036
205.68,-90.9949
205.7,-90.9863
205.72,-90.9776
205.74,-90.9689
205.76,-90.9603
205.78,-90.9516
205.8,-90.9429
205.82,-90.9343
205.84,-90.9256
205.86,-90.917
205.88,-90.9083
205.9,-90.8997
205.92,-90.891
205.94,-90.8824
205.96,-90.8737
205.98,-90.8651
206,-90.8564
206.02,-90.8478
206.04,-90.8391
206.06,-90.8305
206.08,-90.8219
206.1,-90.8132
206.12,-90.8046
206.14,-90.796
206.16,-90.7873
206.18,-90.7787
206.2,-90.7701
206.22,-90.7615
206.24,-90.7528
206.26,-90.7442
206.28,-90.7356
206.3,-90.727
206.32,-90.7184
206.34,-90.7097
206.36,-90.7011
206.38,-90.6925
206.4,-90.6839
206.42,-90.6753
206.44,-90.6667
206.46,-90.6581
206.48,-90.6495
206.5,-90.6409
206.52,-90.6323
206.54,-90.6237
206.56,-90.6151
206.58,-90.6065
206.6,-90.5979
206.62,-90.5893
206.64,-90.5807
206.66,-90.5721
206.68,-90.5636
206.7,-90.555
206.72,-90.5464
206.74,-90.5378
206.76,-90.5292
206.78,-90.5207
206.8,-90.5121
206.82,-90.5035
206.84,-90.4949
206.86,-90.4864
206.88,-90.4778
206.9,-90.4692
206.92,-90.4607
206.94,-90.4521
206.96,-90.4436
206.98,-90.435
207,-90.4264
207.02,-90.4179
207.04,-90.4093
207.06,-90.4008
207.08,-90.3922
207.1,-90.3837
207.12,-90.3751
207.14,-90.3666
207.16,-90.358
207.18,-90.3495
207.2,-90.341
207.22,-90.3324
207.24,-90.3239
207.26,-90.3153
207.28,-90.3068
207.3,-90.2983
207.32,-90.2897
207.34,-90.2812
207.36,-90.2727
207.38,-90.2642
207.4,-90.2556
207.42,-90.2471
207.44,-90.2386
207.46,-90.2301
207.48,-90.2216
207.5,-90.213
207.52,-90.2045
207.54,-90.196
207.56,-90.1875
207.58,-90.179
207.6,-90.1705
207.62,-90.162
207.64,-90.1535
207.66,-90.145
207.68,-90.1365
207.7,-90.128
207.72,-90.1195
207.74,-90.111
207.76,-90.1025
207.78,-90.094
207.8,-90.0855
207.82,-90.077
207.84,-90.0685
207.86,-90.0601
207.88,-90.0516
207.9,-90.0431
207.92,-90.0346
207.94,-90.0261
207.96,-90.0176
207.98,-90.0092
208,-90.0007
208.02,-89.9922
208.04,-89.9838
208.06,-89.9753
208.08,-89.9668
208.1,-89.9584
208.12,-89.9499
208.14,-89.9414
208.16,-89.933
208.18,-89.9245
208.2,-89.9161
208.22,-89.9076
208.24,-89.8992
208.26,-89.8907
208.28,-89.8822
208.3,-89.8738
208.32,-89.8654
208.34,-89.8569
208.36,-89.8485
208.38,-89.84
208.4,-89.8316
208.42,-89.8231
208.44,-89.8147
208.46,-89.8063
208.48,-89.7978
208.5,-89.7894
208.52,-89.781
208.54,-89.7725
208.56,-89.7641
208.58,-89.7557
208.6,-89.7473
208.62,-89.7389
208.64,-89.7304
208.66,-89.722
208.68,-89.7136
208.7,-89.7052
208.72,-89.6968
208.74,-89.6884
208.76,-89.6799
208.78,-89.6715
208.8,-89.6631
208.82,-89.6547
208.84,-89.6463
208.86,-89.6379
208.88,-89.6295
208.9,-89.6211
208.92,-89.6127
208.94,-89.6043
208.96,-89.5959
208.98,-89.5875
209,-89.5792
209.02,-89.5708
209.04,-89.5624
209.06,-89.554
209.08,-89.5456
209.1,-89.5372
209.12,-89.5288
209.14,-89.5205
209.16,-89.5121
209.18,-89.5037
209.2,-89.4953
209.22,-89.487
209.24,-89.4786
209.26,-89.4702
209.28,-89.4619
209.3,-89.4535
209.32,-89.4451
209.34,-89.4368
209.36,-89.4284
209.38,-89.42
209.4,-89.4117
209.42,-89.4033
209.44,-89.395
209.46,-89.3866
209.48,-89.3783
209.5,-89.3699
209.52,-89.3616
209.54,-89.3532
209.56,-89.3449
209.58,-89.3365
209.6,-89.3282
209.62,-89.3199
209.64,-89.3115
209.66,-89.3032
209.68,-89.2949
209.7,-89.2865
209.72,-89.2782
209.74,-89.2699
209.76,-89.2615
209.78,-89.2532
209.8,-89.2449
209.82,-89.2366
209.84,-89.2282
209.86,-89.2199
209.88,-89.2116
209.9,-89.2033
209.92,-89.195
209.94,-89.1866
209.96,-89.1783
209.98,-89.17
210,-89.1617
210.02,-89.1534
210.04,-89.1451
210.06,-89.1368
210.08,-89.1285
210.1,-89.1202
210.12,-89.1119
210.14,-89.1036
210.16,-89.0953
210.18,-89.087
210.2,-89.0787
210.22,-89.0704
210.24,-89.0621
210.26,-89.0539
210.28,-89.0456
210.3,-89.0373
210.32,-89.029
210.34,-89.0207
210.36,-89.0124
210.38,-89.0042
210.4,-88.9959
210.42,-88.9876
210.44,-88.9793
210.46,-88.9711
210.48,-88.9628
210.5,-88.9545
210.52,-88.9463
210.54,-88.938
210.56,-88.9297
210.58,-88.9215
210.6,-88.9132
210.62,-88.9049
210.64,-88.8967
210.66,-88.8884
210.68,-88.8802
210.7,-88.8719
210.72,-88.8637
210.74,-88.8554
210.76,-88.8472
210.78,-88.8389
210.8,-88.8307
210.82,-88.8225
210.84,-88.8142
210.86,-88.806
210.88,-88.7977
210.9,-88.7895
210.92,-88.7813
210.94,-88.773
210.96,-88.7648
210.98,-88.7566
211,-88.7483
211.02,-88.7401
211.04,-88.7319
211.06,-88.7237
211.08,-88.7154
211.1,-88.7072
211.12,-88.699
211.14,-88.6908
211.16,-88.6826
211.18,-88.6744
211.2,-88.6661
211.22,-88.6579
211.24,-88.6497
211.26,-88.6415
211.28,-88.6333
211.3,-88.6251
211.32,-88.6169
211.34,-88.6087
211.36,-88.6005
211.38,-88.5923
211.4,-88.5841
211.42,-88.5759
211.44,-88.5677
211.46,-88.5595
211.48,-88.5513
211.5,-88.5432
211.52,-88.535
211.54,-88.5268
211.56,-88.5186
211.58,-88.5104
211.6,-88.5022
211.62,-88.4941
211.64,-88.4859
211.66,-88.4777
211.68,-88.4695
211.7,-88.4614
211.72,-88.4532
211.74,-88.445
211.76,-88.4368
211.78,-88.4287
211.8,-88.4205
211.82,-88.4124
211.84,-88.4042
211.86,-88.396
211.88,-88.3879
211.9,-88.3797
211.92,-88.3716
211.94,-88.3634
211.96,-88.3553
211.98,-88.3471
212,-88.339
212.02,-88.3308
212.04,-88.3227
212.06,-88.3145
212.08,-88.3064
212.1,-88.2982
212.12,-88.2901
212.14,-88.282
212.16,-88.2738
212.18,-88.2657
212.2,-88.2576
212.22,-88.2494
212.24,-88.2413
212.26,-88.2332
212.28,-88.225
212.3,-88.2169
212.32,-88.2088
212.34,-88.2007
212.36,-88.1925
212.38,-88.1844
212.4,-88.1763
212.42,-88.1682
212.44,-88.1601
212.46,-88.152
212.48,-88.1439
212.5,-88.1357
212.52,-88.1276
212.54,-88.1195
212.56,-88.1114
212.58,-88.1033
212.6,-88.0952
212.62,-88.0871
212.64,-88.079
212.66,-88.0709
212.68,-88.0628
212.7,-88.0547
212.72,-88.0466
212.74,-88.0385
212.76,-88.0305
212.78,-88.0224
212.8,-88.0143
212.82,-88.0062
212.84,-87.9981
212.86,-87.99
212.88,-87.982
212.9,-87.9739
212.92,-87.9658
212.94,-87.9577
212.96,-87.9496
212.98,-87.9416
213,-87.9335
213.02,-87.9254
213.04,-87.9174
213.06,-87.9093
213.08,-87.9012
213.1,-87.8932
213.12,-87.8851
213.14,-87.8771
213.16,-87.869
213.18,-87.8609
213.2,-87.8529
213.22,-87.8448
213.24,-87.8368
213.26,-87.8287
213.28,-87.8207
213.3,-87.8126
213.32,-87.8046
213.34,-87.7965
213.36,-87.7885
213.38,-87.7805
213.4,-87.7724
213.42,-87.7644
213.44,-87.7563
213.46,-87.7483
213.48,-87.7403
213.5,-87.7322
213.52,-87.7242
213.54,-87.7162
213.56,-87.7081
213.58,-87.7001
213.6,-87.6921
213.62,-87.6841
213.64,-87.6761
213.66,-87.668
213.68,-87.66
213.7,-87.652
213.72,-87.644
213.74,-87.636
213.76,-87.628
213.78,-87.6199
213.8,-87.6119
213.82,-87.6039
213.84,-87.5959
213.86,-87.5879
213.88,-87.5799
213.9,-87.5719
213.92,-87.5639
213.94,-87.5559
213.96,-87.5479
213.98,-87.5399
214,-87.5319
214.02,-87.5239
214.04,-87.5159
214.06,-87.508
214.08,-87.5
214.1,-87.492
214.12,-87.484
214.14,-87.476
214.16,-87.468
214.18,-87.4601
214.2,-87.4521
214.22,-87.4441
214.24,-87.4361
214.26,-87.4281
214.28,-87.4202
214.3,-87.4122
214.32,-87.4042
214.34,-87.3963
214.36,-87.3883
214.38,-87.3803
214.4,-87.3724
214.42,-87.3644
214.44,-87.3564
214.46,-87.3485
214.48,-87.3405
214.5,-87.3326
214.52,-87.3246
214.54,-87.3167
214.56,-87.3087
214.58,-87.3008
214.6,-87.2928
214.62,-87.2849
214.64,-87.2769
214.66,-87.269
214.68,-87.261
214.7,-87.2531
214.72,-87.2452
214.74,-87.2372
214.76,-87.2293
214.78,-87.2214
214.8,-87.2134
214.82,-87.2055
214.84,-87.1976
214.86,-87.1896
214.88,-87.1817
214.9,-87.1738
214.92,-87.1659
214.94,-87.1579
214.96,-87.15
214.98,-87.1421
215,-87.1342
215.02,-87.1263
215.04,-87.1183
215.06,-87.1104
215.08,-87.1025
215.1,-87.0946
215.12,-87.0867
215.14,-87.0788
215.16,-87.0709
215.18,-87.063
215.2,-87.0551
215.22,-87.0472
215.24,-87.0393
215.26,-87.0314
215.28,-87.0235
215.3,-87.0156
215.32,-87.0077
215.34,-86.9998
215.36,-86.9919
215.38,-86.984
215.4,-86.9761
215.42,-86.9682
215.44,-86.9603
215.46,-86.9525
215.48,-86.9446
215.5,-86.9367
215.52,-86.9288
215.54,-86.9209
215.56,-86.9131
215.58,-86.9052
215.6,-86.8973
215.62,-86.8894
215.64,-86.8816
215.66,-86.8737
215.68,-86.8658
215.7,-86.858
215.72,-86.8501
215.74,-86.8423
215.76,-86.8344
215.78,-86.8265
215.8,-86.8187
215.82,-86.8108
215.84,-86.803
215.86,-86.7951
215.88,-86.7873
215.9,-86.7794
215.92,-86.7716
215.94,-86.7637
215.96,-86.7559
215.98,-86.748
216,-86.7402
216.02,-86.7323
216.04,-86.7245
216.06,-86.7166
216.08,-86.7088
216.1,-86.701
216.12,-86.6931
216.14,-86.6853
216.16,-86.6775
216.18,-86.6696
216.2,-86.6618
216.22,-86.654
216.24,-86.6462
216.26,-86.6383
216.28,-86.6305
216.3,-86.6227
216.32,-86.6149
216.34,-86.6071
216.36,-86.5992
216.38,-86.5914
216.4,-86.5836
216.42,-86.5758
216.44,-86.568
216.46,-86.5602
216.48,-86.5524
216.5,-86.5446
216.52,-86.5368
216.54,-86.529
216.56,-86.5212
216.58,-86.5133
216.6,-86.5056
216.62,-86.4978
216.64,-86.49
216.66,-86.4822
216.68,-86.4744
216.7,-86.4666
216.72,-86.4588
216.74,-86.451
216.76,-86.4432
216.78,-86.4354
216.8,-86.4276
216.82,-86.4199
216.84,-86.4121
216.86,-86.4043
216.88,-86.3965
216.9,-86.3887
216.92,-86.381
216.94,-86.3732
216.96,-86.3654
216.98,-86.3576
217,-86.3499
217.02,-86.3421
217.04,-86.3343
217.06,-86.3266
217.08,-86.3188
217.1,-86.311
217.12,-86.3033
217.14,-86.2955
217.16,-86.2878
217.18,-86.28
217.2,-86.2723
217.22,-86.2645
217.24,-86.2567
217.26,-86.249
217.28,-86.2412
217.3,-86.2335
217.32,-86.2258
217.34,-86.218
217.36,-86.2103
217.38,-86.2025
217.4,-86.1948
217.42,-86.187
217.44,-86.1793
217.46,-86.1716
217.48,-86.1638
217.5,-86.1561
217.52,-86.1484
217.54,-86.1406
217.56,-86.1329
217.58,-86.1252
217.6,-86.1175
217.62,-86.1097
217.64,-86.102
217.66,-86.0943
217.68,-86.0866
217.7,-86.0788
217.72,-86.0711
217.74,-86.0634
217.76,-86.0557
217.78,-86.048
217.8,-86.0403
217.82,-86.0326
217.84,-86.0248
217.86,-86.0171
217.88,-86.0094
217.9,-86.0017
217.92,-85.994
217.94,-85.9863
217.96,-85.9786
217.98,-85.9709
218,-85.9632
218.02,-85.9555
218.04,-85.9478
218.06,-85.9401
218.08,-85.9325
218.1,-85.9248
218.12,-85.9171
218.14,-85.9094
218.16,-85.9017
218.18,-85.894
218.2,-85.8863
218.22,-85.8786
218.24,-85.871
218.26,-85.8633
218.28,-85.8556
218.3,-85.8479
218.32,-85.8403
218.34,-85.8326
218.36,-85.8249
218.38,-85.8172
218.4,-85.8096
218.42,-85.8019
218.44,-85.7942
218.46,-85.7866
218.48,-85.7789
218.5,-85.7713
218.52,-85.7636
218.54,-85.7559
218.56,-85.7483
218.58,-85.7406
218.6,-85.733
218.62,-85.7253
218.64,-85.7177
218.66,-85.71
218.68,-85.7024
218.7,-85.6947
218.72,-85.6871
218.74,-85.6794
218.76,-85.6718
218.78,-85.6641
218.8,-85.6565
218.82,-85.6489
218.84,-85.6412
218.86,-85.6336
218.88,-85.626
218.9,-85.6183
218.92,-85.6107
218.94,-85.6031
218.96,-85.5954
218.98,-85.5878
219,-85.5802
219.02,-85.5726
219.04,-85.5649
219.06,-85.5573
219.08,-85.5497
219.1,-85.5421
219.12,-85.5344
219.14,-85.5268
219.16,-85.5192
219.18,-85.5116
219.2,-85.504
219.22,-85.4964
219.24,-85.4888
219.26,-85.4812
219.28,-85.4736
219.3,-85.466
219.32,-85.4584
219.34,-85.4507
219.36,-85.4431
219.38,-85.4355
219.4,-85.428
219.42,-85.4204
219.44,-85.4128
219.46,-85.4052
219.48,-85.3976
219.5,-85.39
219.52,-85.3824
219.54,-85.3748
219.56,-85.3672
219.58,-85.3596
219.6,-85.3521
219.62,-85.3445
219.64,-85.3369
219.66,-85.3293
219.68,-85.3217
219.7,-85.3142
219.72,-85.3066
219.74,-85.299
219.76,-85.2914
219.78,-85.2839
219.8,-85.2763
219.82,-85.2687
219.84,-85.2612
219.86,-85.2536
219.88,-85.246
219.9,-85.2385
219.92,-85.2309
219.94,-85.2233
219.96,-85.2158
219.98,-85.2082
220,-85.2007
220.02,-85.1931
220.04,-85.1856
220.06,-85.178
220.08,-85.1705
220.1,-85.1629
220.12,-85.1554
220.14,-85.1478
220.16,-85.1403
220.18,-85.1327
220.2,-85.1252
220.22,-85.1177
220.24,-85.1101
220.26,-85.1026
220.28,-85.095
220.3,-85.0875
220.32,-85.08
220.34,-85.0724
220.36,-85.0649
220.38,-85.0574
220.4,-85.0499
220.42,-85.0423
220.44,-85.0348
220.46,-85.0273
220.48,-85.0198
220.5,-85.0122
220.52,-85.0047
220.54,-84.9972
220.56,-84.9897
220.58,-84.9822
220.6,-84.9746
220.62,-84.9671
220.64,-84.9596
220.66,-84.9521
220.68,-84.9446
220.7,-84.9371
220.72,-84.9296
220.74,-84.9221
220.76,-84.9146
220.78,-84.9071
220.8,-84.8996
220.82,-84.8921
220.84,-84.8846
220.86,-84.8771
220.88,-84.8696
220.9,-84.8621
220.92,-84.8546
220.94,-84.8471
220.96,-84.8396
220.98,-84.8321
221,-84.8247
221.02,-84.8172
221.04,-84.8097
221.06,-84.8022
221.08,-84.7947
221.1,-84.7872
221.12,-84.7798
221.14,-84.7723
221.16,-84.7648
221.18,-84.7573
221.2,-84.7499
221.22,-84.7424
221.24,-84.7349
221.26,-84.7275
221.28,-84.72
221.3,-84.7125
221.32,-84.7051
221.34,-84.6976
221.36,-84.6901
221.38,-84.6827
221.4,-84.6752
221.42,-84.6678
221.44,-84.6603
221.46,-84.6529
221.48,-84.6454
221.5,-84.6379
221.52,-84.6305
221.54,-84.623
221.56,-84.6156
221.58,-84.6082
221.6,-84.6007
221.62,-84.5933
221.64,-84.5858
221.66,-84.5784
221.68,-84.5709
221.7,-84.5635
221.72,-84.5561
221.74,-84.5486
221.76,-84.5412
221.78,-84.5338
221.8,-84.5263
221.82,-84.5189
221.84,-84.5115
221.86,-84.504
221.88,-84.4966
221.9,-84.4892
221.92,-84.4818
221.94,-84.4743
221.96,-84.4669
221.98,-84.4595
222,-84.4521
222.02,-84.4447
222.04,-84.4373
222.06,-84.4298
222.08,-84.4224
222.1,-84.415
222.12,-84.4076
222.14,-84.4002
222.16,-84.3928
222.18,-84.3854
222.2,-84.378
222.22,-84.3706
222.24,-84.3632
222.26,-84.3558
222.28,-84.3484
222.3,-84.341
222.32,-84.3336
222.34,-84.3262
222.36,-84.3188
222.38,-84.3114
222.4,-84.304
222.42,-84.2966
222.44,-84.2892
222.46,-84.2819
222.48,-84.2745
222.5,-84.2671
222.52,-84.2597
222.54,-84.2523
222.56,-84.2449
222.58,-84.2376
222.6,-84.2302
222.62,-84.2228
222.64,-84.2154
222.66,-84.2081
222.68,-84.2007
222.7,-84.1933
222.72,-84.1859
222.74,-84.1786
222.76,-84.1712
222.78,-84.1638
222.8,-84.1565
222.82,-84.1491
222.84,-84.1418
222.86,-84.1344
222.88,-84.127
222.9,-84.1197
222.92,-84.1123
222.94,-84.105
222.96,-84.0976
222.98,-84.0903
223,-84.0829
223.02,-84.0756
223.04,-84.0682
223.06,-84.0609
223.08,-84.0535
223.1,-84.0462
223.12,-84.0388
223.14,-84.0315
223.16,-84.0242
223.18,-84.0168
223.2,-84.0095
223.22,-84.0021
223.24,-83.9948
223.26,-83.9875
223.28,-83.9801
223.3,-83.9728
223.32,-83.9655
223.34,-83.9582
223.36,-83.9508
223.38,-83.9435
223.4,-83.9362
223.42,-83.9289
223.44,-83.9215
223.46,-83.9142
223.48,-83.9069
223.5,-83.8996
223.52,-83.8923
223.54,-83.885
223.56,-83.8776
223.58,-83.8703
223.6,-83.863
223.62,-83.8557
223.64,-83.8484
223.66,-83.8411
223.68,-83.8338
223.7,-83.8265
223.72,-83.8192
223.74,-83.8119
223.76,-83.8046
223.78,-83.7973
223.8,-83.79
223.82,-83.7827
223.84,-83.7754
223.86,-83.7681
223.88,-83.7608
223.9,-83.7535
223.92,-83.7462
223.94,-83.7389
223.96,-83.7317
223.98,-83.7244
224,-83.7171
224.02,-83.7098
224.04,-83.7025
224.06,-83.6952
224.08,-83.688
224.1,-83.6807
224.12,-83.6734
224.14,-83.6661
224.16,-83.6589
224.18,-83.6516
224.2,-83.6443
224.22,-83.637
224.24,-83.6298
224.26,-83.6225
224.28,-83.6152
224.3,-83.608
224.32,-83.6007
224.34,-83.5935
224.36,-83.5862
224.38,-83.5789
224.4,-83.5717
224.42,-83.5644
224.44,-83.5572
224.46,-83.5499
224.48,-83.5427
224.5,-83.5354
224.52,-83.5282
224.54,-83.5209
224.56,-83.5137
224.58,-83.5064
224.6,-83.4992
224.62,-83.4919
224.64,-83.4847
224.66,-83.4775
224.68,-83.4702
224.7,-83.463
224.72,-83.4557
224.74,-83.4485
224.76,-83.4413
224.78,-83.434
224.8,-83.4268
224.82,-83.4196
224.84,-83.4123
224.86,-83.4051
224.88,-83.3979
224.9,-83.3907
224.92,-83.3834
224.94,-83.3762
224.96,-83.369
224.98,-83.3618
225,-83.3546
225.02,-83.3473
225.04,-83.3401
225.06,-83.3329
225.08,-83.3257
225.1,-83.3185
225.12,-83.3113
225.14,-83.3041
225.16,-83.2969
225.18,-83.2896
225.2,-83.2824
225.22,-83.2752
225.24,-83.268
225.26,-83.2608
225.28,-83.2536
225.3,-83.2464
225.32,-83.2392
225.34,-83.232
225.36,-83.2248
225.38,-83.2177
225.4,-83.2105
225.42,-83.2033
225.44,-83.1961
225.46,-83.1889
225.48,-83.1817
225.5,-83.1745
225.52,-83.1673
225.54,-83.1601
225.56,-83.153
225.58,-83.1458
225.6,-83.1386
225.62,-83.1314
225.64,-83.1242
225.66,-83.1171
225.68,-83.1099
225.7,-83.1027
225.72,-83.0956
225.74,-83.0884
225.76,-83.0812
225.78,-83.074
225.8,-83.0669
225.82,-83.0597
225.84,-83.0525
225.86,-83.0454
225.88,-83.0382
225.9,-83.0311
225.92,-83.0239
225.94,-83.0167
225.96,-83.0096
225.98,-83.0024
226,-82.9953
226.02,-82.9881
226.04,-82.981
226.06,-82.9738
226.08,-82.9667
226.1,-82.9595
226.12,-82.9524
226.14,-82.9452
226.16,-82.9381
226.18,-82.931
226.2,-82.9238
226.22,-82.9167
226.24,-82.9095
226.26,-82.9024
226.28,-82.8953
226.3,-82.8881
226.32,-82.881
226.34,-82.8739
226.36,-82.8667
226.38,-82.8596
226.4,-82.8525
226.42,-82.8453
226.44,-82.8382
226.46,-82.8311
226.48,-82.824
226.5,-82.8168
226.52,-82.8097
226.54,-82.8026
226.56,-82.7955
226.58,-82.7884
226.6,-82.7813
226.62,-82.7741
226.64,-82.767
226.66,-82.7599
226.68,-82.7528
226.7,-82.7457
226.72,-82.7386
226.74,-82.7315
226.76,-82.7244
226.78,-82.7173
226.8,-82.7102
226.82,-82.7031
226.84,-82.696
226.86,-82.6889
226.88,-82.6818
226.9,-82.6747
226.92,-82.6676
226.94,-82.6605
226.96,-82.6534
226.98,-82.6463
227,-82.6392
227.02,-82.6321
227.04,-82.625
227.06,-82.6179
227.08,-82.6109
227.1,-82.6038
227.12,-82.5967
227.14,-82.5896
227.16,-82.5825
227.18,-82.5755
227.2,-82.5684
227.22,-82.5613
227.24,-82.5542
227.26,-82.5472
227.28,-82.5401
227.3,-82.533
227.32,-82.5259
227.34,-82.5189
227.36,-82.5118
227.38,-82.5047
227.4,-82.4977
227.42,-82.4906
227.44,-82.4835
227.46,-82.4765
227.48,-82.4694
227.5,-82.4624
227.52,-82.4553
227.54,-82.4483
227.56,-82.4412
227.58,-82.4341
227.6,-82.4271
227.62,-82.42
227.64,-82.413
227.66,-82.4059
227.68,-82.3989
227.7,-82.3918
227.72,-82.3848
227.74,-82.3778
227.76,-82.3707
227.78,-82.3637
227.8,-82.3566
227.82,-82.3496
227.84,-82.3426
227.86,-82.3355
227.88,-82.3285
227.9,-82.3215
227.92,-82.3144
227.94,-82.3074
227.96,-82.3004
227.98,-82.2933
228,-82.2863
228.02,-82.2793
228.04,-82.2723
228.06,-82.2652
228.08,-82.2582
228.1,-82.2512
228.12,-82.2442
228.14,-82.2371
228.16,-82.2301
228.18,-82.2231
228.2,-82.2161
228.22,-82.2091
228.24,-82.2021
228.26,-82.1951
228.28,-82.1881
228.3,-82.181
228.32,-82.174
228.34,-82.167
228.36,-82.16
228.38,-82.153
228.4,-82.146
228.42,-82.139
228.44,-82.132
228.46,-82.125
228.48,-82.118
228.5,-82.111
228.52,-82.104
228.54,-82.097
228.56,-82.09
228.58,-82.083
228.6,-82.0761
228.62,-82.0691
228.64,-82.0621
228.66,-82.0551
228.68,-82.0481
228.7,-82.0411
228.72,-82.0341
228.74,-82.0272
228.76,-82.0202
228.78,-82.0132
228.8,-82.0062
228.82,-81.9992
228.84,-81.9923
228.86,-81.9853
228.88,-81.9783
228.9,-81.9714
228.92,-81.9644
228.94,-81.9574
228.96,-81.9504
228.98,-81.9435
229,-81.9365
229.02,-81.9296
229.04,-81.9226
229.06,-81.9156
229.08,-81.9087
229.1,-81.9017
229.12,-81.8947
229.14,-81.8878
229.16,-81.8808
229.18,-81.8739
229.2,-81.8669
229.22,-81.86
229.24,-81.853
229.26,-81.8461
229.28,-81.8391
229.3,-81.8322
229.32,-81.8252
229.34,-81.8183
229.36,-81.8113
229.38,-81.8044
229.4,-81.7975
229.42,-81.7905
229.44,-81.7836
229.46,-81.7766
229.48,-81.7697
229.5,-81.7628
229.52,-81.7558
229.54,-81.7489
229.56,-81.742
229.58,-81.7351
229.6,-81.7281
229.62,-81.7212
229.64
